CLOSED
Version	2.0
Language	English
Mode	Standard
Run	1
RunSerial	764
Instrument	DSC Q20 V24.10 Build 122
Module	DSC Standard Cell FC
Operator	klemazov
File	\\Iate\ta\Data\DSC\Елисеев-Турсунов\PLA.002
ProcName	Ramp
InstSerial	0020-2215
Sample	PLA 20K/MIN
Size	10.5000	mg
Method	Ramp
Comment	полилактин второе измерение
Xcomment	Pan: SFI Aluminum
Xcomment	Gas1: Nitrogen 50.0 ml/min
Xcomment	Gas2: Nitrogen 50.0 ml/min
Text
Exotherm	UP
Kcell	1.04470
Calib	-30.5155
TempCal	1	pts	156.82	156.60
TzeroDt	Not loaded
TzeroDtz	Not loaded
BaselineCal	0.0048	-3.4469
AutoZero	Delta T Offset 0.000 uV
AutoZero	Delta T0 Offset 0.000 uV
MultiptCal	0
MultiPtDesc
AutoCellConst	Calibration Date 2019-04-13 13:02:24
Controls	Gas 1  Event Off  Sampling 0.1
Cell#	FC-06475
CoolingUnit	FACS
SelHeatFlow	Heat Flow (mW)
AutoLidII	Installed
AutoAnalysis	Off
MacroFile
Nsig	3
Sig1	Time (min)
Sig2	Temperature (°C)
Sig3	Heat Flow (mW)
Date	2022-02-22
Time	18:56:25
OrgMethod	1: Ramp 20.00 °C/min to 200.00 °C
OrgFile	C:\TA\Data\DSC\Елисеев-Турсунов\PLA.002
StartOfData
.001333326	45.18712	0.01848063
.002999991	45.18286	0.01947582
.004666656	45.17994	0.02041144
.006333321	45.17687	0.02144753
.007999986	45.17389	0.02247712
.009666666	45.17045	0.02350589
0.01133333	45.16743	0.02465284
0.01300000	45.16425	0.02585208
0.01466666	45.16303	0.02709220
0.01633333	45.16062	0.02860612
0.01799999	45.15795	0.03019900
0.01966666	45.15654	0.03182932
0.02133332	45.15527	0.03370348
0.02299999	45.15406	0.03587836
0.02466665	45.15304	0.03854937
0.02633333	45.15258	0.04221023
0.02800000	45.15191	0.04616796
0.02966666	45.15261	0.05066940
0.03133333	45.15368	0.05545880
0.03300000	45.15500	0.06041622
0.03466666	45.15663	0.06574416
0.03633332	45.15953	0.07183728
0.03799999	45.16174	0.07799028
0.03966665	45.16492	0.08472211
0.04133333	45.16958	0.09130043
0.04300000	45.17369	0.09697402
0.04466666	45.17918	0.1023138
0.04633333	45.18467	0.1081210
0.04800000	45.19197	0.1137942
0.04966666	45.19848	0.1185234
0.05133332	45.20652	0.1233481
0.05300000	45.21592	0.1282344
0.05466665	45.22458	0.1328720
0.05633332	45.23459	0.1370170
0.05800000	45.24580	0.1408103
0.05966666	45.25611	0.1450347
0.06133332	45.26886	0.1480228
0.06300000	45.28154	0.1504924
0.06466666	45.29190	0.1532235
0.06633332	45.30613	0.1545888
0.06800000	45.31889	0.1563438
0.06966666	45.33344	0.1584260
0.07133332	45.34718	0.1593363
0.07300000	45.36276	0.1603901
0.07466666	45.37691	0.1614024
0.07633332	45.39436	0.1617568
0.07800000	45.41083	0.1617419
0.07966666	45.42569	0.1616610
0.08133332	45.44281	0.1612501
0.08300000	45.46033	0.1610029
0.08466666	45.47664	0.1606539
0.08633332	45.49474	0.1601941
0.08800000	45.51292	0.1595751
0.08966666	45.53174	0.1589689
0.09133332	45.55015	0.1545355
0.09299999	45.56832	0.1516610
0.09466666	45.58668	0.1494074
0.09633332	45.60546	0.1474514
0.09800000	45.62489	0.1458125
0.09966668	45.64359	0.1445722
0.1013333	45.66372	0.1429835
0.1030000	45.68502	0.1411154
0.1046667	45.70537	0.1382696
0.1063333	45.72552	0.1353337
0.1080000	45.74611	0.1318701
0.1096666	45.76509	0.1273736
0.1113333	45.78750	0.1223140
0.1130000	45.80993	0.1166612
0.1146666	45.83045	0.1097980
0.1163333	45.85257	0.1015373
0.1180000	45.87465	0.09167465
0.1196666	45.89620	0.07845955
0.1213333	45.91870	0.06688728
0.1230000	45.94109	0.05364385
0.1246666	45.96394	0.04239546
0.1263333	45.98654	0.03000137
0.1280000	46.00969	0.01909244
0.1296667	46.03336	.005059252
0.1313334	46.05685	-5.4024E-3
0.1330000	46.08084	-.01597916
0.1346667	46.10410	-.02662303
0.1363333	46.12910	-.03742817
0.1380000	46.15286	-.04891328
0.1396666	46.17686	-.06173930
0.1413333	46.20130	-.07279334
0.1430000	46.22698	-.08550781
0.1446666	46.25150	-.09826608
0.1463333	46.27666	-0.1105252
0.1480000	46.30106	-0.1238057
0.1496666	46.32713	-0.1365886
0.1513333	46.35317	-0.1511210
0.1530000	46.37802	-0.1647201
0.1546666	46.40408	-0.1786844
0.1563333	46.43074	-0.1943311
0.1580000	46.45712	-0.2066824
0.1596667	46.48167	-0.2230076
0.1613333	46.50906	-0.2384052
0.1630000	46.53464	-0.2542320
0.1646667	46.56056	-0.2706046
0.1663333	46.58724	-0.2852512
0.1680000	46.61422	-0.3004437
0.1696666	46.64092	-0.3181809
0.1713333	46.66645	-0.3350300
0.1730000	46.69559	-0.3521344
0.1746666	46.72148	-0.3685750
0.1763333	46.74904	-0.3856318
0.1780000	46.77660	-0.4018704
0.1796666	46.80376	-0.4195855
0.1813333	46.83090	-0.4371188
0.1830000	46.85926	-0.4541086
0.1846666	46.88606	-0.4711190
0.1863333	46.91418	-0.4901081
0.1880000	46.94248	-0.5093022
0.1896667	46.96946	-0.5275854
0.1913334	46.99700	-0.5452105
0.1930000	47.02582	-0.5639055
0.1946667	47.05496	-0.5823286
0.1963333	47.08220	-0.6018622
0.1980000	47.11050	-0.6197842
0.1996667	47.13798	-0.6393184
0.2013333	47.16700	-0.6583778
0.2030000	47.19530	-0.6788451
0.2046667	47.22298	-0.6966075
0.2063333	47.25134	-0.7171432
0.2080000	47.28018	-0.7365892
0.2096666	47.30920	-0.7553992
0.2113333	47.33776	-0.7750041
0.2130000	47.36705	-0.7956328
0.2146666	47.39460	-0.8151681
0.2163333	47.42444	-0.8362070
0.2180000	47.45406	-0.8547231
0.2196666	47.48284	-0.8746472
0.2213333	47.51190	-0.8942535
0.2230000	47.54062	-0.9134053
0.2246667	47.56941	-0.9353524
0.2263333	47.59988	-0.9540753
0.2280000	47.62863	-0.9758180
0.2296667	47.65852	-0.9954268
0.2313333	47.68720	-1.016397
0.2330000	47.71741	-1.035870
0.2346666	47.74695	-1.055979
0.2363333	47.77559	-1.077949
0.2380000	47.80575	-1.097173
0.2396666	47.83518	-1.117282
0.2413333	47.86515	-1.138665
0.2430000	47.89481	-1.158616
0.2446666	47.92447	-1.178408
0.2463333	47.95474	-1.198383
0.2480000	47.98502	-1.218472
0.2496666	48.01648	-1.238699
0.2513333	48.04474	-1.259217
0.2530000	48.07470	-1.279761
0.2546667	48.10482	-1.300214
0.2563334	48.13552	-1.321759
0.2580000	48.16478	-1.340416
0.2596667	48.19604	-1.361509
0.2613334	48.22519	-1.382461
0.2630000	48.25539	-1.401371
0.2646667	48.28578	-1.421644
0.2663334	48.31630	-1.443645
0.2680000	48.34656	-1.463601
0.2696667	48.37822	-1.483423
0.2713334	48.40776	-1.502764
0.2730000	48.43770	-1.521743
0.2746667	48.46833	-1.541700
0.2763334	48.49888	-1.562158
0.2780000	48.52996	-1.581821
0.2796667	48.56024	-1.603006
0.2813334	48.59102	-1.621941
0.2830000	48.62018	-1.641625
0.2846666	48.65190	-1.660744
0.2863333	48.68170	-1.678680
0.2880000	48.71274	-1.699867
0.2896666	48.74434	-1.719738
0.2913333	48.77436	-1.738947
0.2930000	48.80530	-1.756885
0.2946666	48.83624	-1.776982
0.2963333	48.86646	-1.797579
0.2980000	48.89796	-1.815338
0.2996666	48.92907	-1.834641
0.3013333	48.96030	-1.854422
0.3030000	48.99020	-1.873519
0.3046666	49.02273	-1.891757
0.3063333	49.05359	-1.910948
0.3080000	49.08280	-1.930271
0.3096666	49.11446	-1.948623
0.3113333	49.14646	-1.966816
0.3130000	49.17597	-1.984800
0.3146667	49.20838	-2.004086
0.3163334	49.23837	-2.023276
0.3180000	49.27078	-2.041608
0.3196667	49.30172	-2.057756
0.3213334	49.33269	-2.076289
0.3230000	49.36448	-2.095120
0.3246667	49.39698	-2.112681
0.3263333	49.42706	-2.131055
0.3280000	49.45627	-2.148428
0.3296667	49.48918	-2.166126
0.3313334	49.52104	-2.183732
0.3330000	49.55206	-2.201609
0.3346667	49.58378	-2.218374
0.3363333	49.61494	-2.236275
0.3380000	49.64561	-2.252448
0.3396667	49.67782	-2.270056
0.3413334	49.70918	-2.288299
0.3430000	49.74078	-2.305452
0.3446667	49.77139	-2.323102
0.3463333	49.80342	-2.339711
0.3480000	49.83324	-2.355088
0.3496666	49.86712	-2.372884
0.3513333	49.89780	-2.387718
0.3530000	49.92961	-2.405691
0.3546667	49.96111	-2.420072
0.3563333	49.99179	-2.437589
0.3580000	50.02493	-2.451860
0.3596666	50.05540	-2.468264
0.3613334	50.08666	-2.484373
0.3630000	50.11889	-2.500167
0.3646667	50.15176	-2.516644
0.3663334	50.18142	-2.532456
0.3680000	50.21384	-2.547092
0.3696667	50.24634	-2.563545
0.3713334	50.27720	-2.576928
0.3730000	50.30937	-2.593701
0.3746667	50.34106	-2.609314
0.3763334	50.37196	-2.624606
0.3780000	50.40436	-2.639584
0.3796667	50.43690	-2.654608
0.3813334	50.46884	-2.669382
0.3830000	50.50098	-2.682404
0.3846667	50.53250	-2.697769
0.3863334	50.56374	-2.713770
0.3880000	50.59498	-2.727086
0.3896667	50.62698	-2.742702
0.3913334	50.65863	-2.754930
0.3930000	50.69090	-2.769592
0.3946667	50.72252	-2.784276
0.3963334	50.75504	-2.798099
0.3980000	50.78734	-2.812648
0.3996667	50.81858	-2.824762
0.4013333	50.85147	-2.838222
0.4030000	50.88342	-2.853113
0.4046667	50.91440	-2.865864
0.4063334	50.94704	-2.879916
0.4080000	50.97913	-2.894671
0.4096666	51.01068	-2.907106
0.4113333	51.04250	-2.919565
0.4130000	51.07431	-2.932979
0.4146667	51.10768	-2.944578
0.4163333	51.13834	-2.957466
0.4180000	51.17027	-2.971177
0.4196667	51.20297	-2.983911
0.4213333	51.23430	-2.996598
0.4230000	51.26762	-3.009290
0.4246667	51.29986	-3.021250
0.4263334	51.33114	-3.033119
0.4280000	51.36287	-3.046513
0.4296667	51.39531	-3.057543
0.4313334	51.42778	-3.068823
0.4330000	51.45961	-3.081831
0.4346667	51.49246	-3.093954
0.4363334	51.52506	-3.106009
0.4380000	51.55696	-3.117517
0.4396667	51.58896	-3.128616
0.4413334	51.62113	-3.140170
0.4430000	51.65246	-3.151290
0.4446667	51.68540	-3.162460
0.4463334	51.71707	-3.173924
0.4480000	51.75022	-3.184298
0.4496667	51.78174	-3.196126
0.4513333	51.81452	-3.207660
0.4530000	51.84634	-3.218579
0.4546667	51.87800	-3.228678
0.4563334	51.91134	-3.239214
0.4580000	51.94239	-3.250222
0.4596667	51.97524	-3.261304
0.4613333	52.00744	-3.271110
0.4630000	52.03918	-3.281279
0.4646667	52.07265	-3.293476
0.4663334	52.10426	-3.303555
0.4680000	52.13653	-3.313385
0.4696667	52.16910	-3.323875
0.4713333	52.20089	-3.334683
0.4730000	52.23226	-3.343078
0.4746666	52.26633	-3.353048
0.4763333	52.29760	-3.363150
0.4780000	52.33024	-3.371958
0.4796667	52.36262	-3.381766
0.4813333	52.39619	-3.392261
0.4830000	52.42812	-3.401932
0.4846666	52.46008	-3.410149
0.4863334	52.49278	-3.419617
0.4880000	52.52500	-3.429540
0.4896667	52.55779	-3.438350
0.4913334	52.58885	-3.445996
0.4930000	52.62276	-3.456265
0.4946667	52.65434	-3.465687
0.4963334	52.68699	-3.474770
0.4980000	52.72053	-3.483311
0.4996667	52.75188	-3.492620
0.5013333	52.78433	-3.499679
0.5030000	52.81732	-3.509219
0.5046667	52.85020	-3.517895
0.5063334	52.88260	-3.525933
0.5080000	52.91479	-3.535016
0.5096667	52.94760	-3.543147
0.5113334	52.98014	-3.552664
0.5130000	53.01250	-3.559906
0.5146667	53.04564	-3.567880
0.5163334	53.07840	-3.576215
0.5180000	53.10924	-3.584934
0.5196667	53.14200	-3.593133
0.5213333	53.17537	-3.601380
0.5230000	53.20744	-3.608919
0.5246668	53.24058	-3.616710
0.5263332	53.27240	-3.624613
0.5280000	53.30537	-3.631585
0.5296668	53.33748	-3.639125
0.5313334	53.37057	-3.648282
0.5330000	53.40416	-3.654597
0.5346666	53.43676	-3.662570
0.5363332	53.46863	-3.670907
0.5380000	53.50028	-3.677808
0.5396668	53.53325	-3.683758
0.5413332	53.56641	-3.690346
0.5430000	53.59841	-3.697317
0.5446668	53.63130	-3.704406
0.5463332	53.66384	-3.711469
0.5480000	53.69709	-3.718580
0.5496668	53.72938	-3.727329
0.5513334	53.76213	-3.733438
0.5530000	53.79432	-3.739593
0.5546668	53.82729	-3.747500
0.5563334	53.85987	-3.754475
0.5580000	53.89300	-3.761223
0.5596668	53.92456	-3.767285
0.5613334	53.95818	-3.773898
0.5630000	53.99065	-3.780509
0.5646668	54.02301	-3.786140
0.5663334	54.05551	-3.793275
0.5680000	54.08849	-3.798317
0.5696668	54.12030	-3.805815
0.5713334	54.15450	-3.811748
0.5730000	54.18656	-3.817562
0.5746668	54.21952	-3.824766
0.5763332	54.25266	-3.830446
0.5780000	54.28496	-3.834737
0.5796668	54.31805	-3.841556
0.5813334	54.35082	-3.847690
0.5830000	54.38364	-3.854578
0.5846668	54.41567	-3.860005
0.5863332	54.44898	-3.865756
0.5880000	54.48140	-3.871002
0.5896668	54.51533	-3.877484
0.5913334	54.54707	-3.883070
0.5930000	54.57979	-3.888206
0.5946668	54.61218	-3.894204
0.5963332	54.64524	-3.897883
0.5980000	54.67778	-3.905272
0.5996666	54.71049	-3.911477
0.6013332	54.74307	-3.916567
0.6030000	54.77696	-3.922753
0.6046668	54.80926	-3.927160
0.6063332	54.84250	-3.932979
0.6080000	54.87344	-3.938156
0.6096666	54.90781	-3.944025
0.6113334	54.94092	-3.948548
0.6130000	54.97450	-3.953436
0.6146668	55.00560	-3.959798
0.6163334	55.03912	-3.964868
0.6180000	55.07100	-3.968068
0.6196668	55.10416	-3.974800
0.6213334	55.13746	-3.979050
0.6230000	55.17056	-3.984097
0.6246668	55.20284	-3.988118
0.6263332	55.23567	-3.993210
0.6280000	55.26838	-3.997551
0.6296668	55.30110	-4.002870
0.6313334	55.33404	-4.007509
0.6330000	55.36752	-4.012216
0.6346668	55.39976	-4.017900
0.6363334	55.43271	-4.020192
0.6380000	55.46582	-4.025969
0.6396668	55.49813	-4.031061
0.6413332	55.53144	-4.035610
0.6430000	55.56406	-4.038812
0.6446668	55.59774	-4.043294
0.6463332	55.63060	-4.048137
0.6480000	55.66244	-4.054002
0.6496668	55.69566	-4.058232
0.6513332	55.72859	-4.063054
0.6530000	55.76134	-4.067192
0.6546668	55.79436	-4.069850
0.6563332	55.82737	-4.075104
0.6580000	55.86016	-4.078422
0.6596666	55.89329	-4.082380
0.6613332	55.92690	-4.086908
0.6630000	55.95974	-4.090090
0.6646668	55.99313	-4.095415
0.6663332	56.02495	-4.098800
0.6680000	56.05891	-4.103306
0.6696668	56.09118	-4.106442
0.6713332	56.12495	-4.110233
0.6730000	56.15713	-4.113987
0.6746668	56.19052	-4.117378
0.6763334	56.22378	-4.121477
0.6780000	56.25574	-4.125330
0.6796668	56.28820	-4.130171
0.6813332	56.32129	-4.135176
0.6830000	56.35383	-4.137028
0.6846668	56.38716	-4.141668
0.6863334	56.42032	-4.146520
0.6880000	56.45284	-4.148304
0.6896668	56.48622	-4.152745
0.6913332	56.51905	-4.155954
0.6930000	56.55137	-4.159610
0.6946668	56.58484	-4.162294
0.6963334	56.61789	-4.165805
0.6980000	56.65122	-4.169828
0.6996668	56.68420	-4.173530
0.7013332	56.71598	-4.176930
0.7030000	56.74965	-4.180325
0.7046668	56.78320	-4.184462
0.7063332	56.81640	-4.188208
0.7080000	56.84801	-4.191466
0.7096668	56.88206	-4.193885
0.7113332	56.91452	-4.196748
0.7130000	56.94836	-4.200318
0.7146668	56.97996	-4.204650
0.7163332	57.01428	-4.208390
0.7180000	57.04651	-4.210990
0.7196668	57.08075	-4.213867
0.7213332	57.11182	-4.216729
0.7230000	57.14492	-4.220212
0.7246668	57.17789	-4.222500
0.7263332	57.21191	-4.226382
0.7280000	57.24462	-4.229278
0.7296668	57.27747	-4.231991
0.7313332	57.31031	-4.235178
0.7330000	57.34356	-4.238891
0.7346666	57.37690	-4.242008
0.7363334	57.41024	-4.244998
0.7380000	57.44378	-4.248028
0.7396668	57.47590	-4.249584
0.7413334	57.50802	-4.252606
0.7430000	57.54282	-4.254907
0.7446668	57.57566	-4.258426
0.7463334	57.60755	-4.261948
0.7480000	57.64060	-4.265344
0.7496668	57.67368	-4.267820
0.7513332	57.70828	-4.270434
0.7530000	57.74010	-4.273060
0.7546668	57.77350	-4.276180
0.7563332	57.80610	-4.278650
0.7580000	57.83981	-4.282092
0.7596668	57.87230	-4.284978
0.7613334	57.90544	-4.287328
0.7630000	57.93808	-4.289674
0.7646668	57.97170	-4.293100
0.7663332	58.00426	-4.295626
0.7680000	58.03692	-4.297678
0.7696668	58.06970	-4.300238
0.7713332	58.10329	-4.302962
0.7730000	58.13652	-4.305558
0.7746668	58.17044	-4.308017
0.7763332	58.20260	-4.310509
0.7780000	58.23474	-4.312782
0.7796668	58.26838	-4.315210
0.7813332	58.30142	-4.318441
0.7830000	58.33465	-4.321228
0.7846666	58.36777	-4.323530
0.7863332	58.40162	-4.326366
0.7880000	58.43432	-4.328189
0.7896668	58.46762	-4.330498
0.7913332	58.50093	-4.333140
0.7930000	58.53374	-4.335346
0.7946668	58.56718	-4.337960
0.7963332	58.60015	-4.340779
0.7980000	58.63262	-4.343278
0.7996668	58.66418	-4.345814
0.8013332	58.69785	-4.347973
0.8030000	58.73105	-4.350350
0.8046668	58.76548	-4.352860
0.8063332	58.79781	-4.354838
0.8080000	58.83144	-4.357031
0.8096668	58.86292	-4.358978
0.8113334	58.89740	-4.361300
0.8130000	58.93055	-4.363295
0.8146668	58.96318	-4.365646
0.8163334	58.99752	-4.367796
0.8180000	59.03037	-4.370111
0.8196668	59.06329	-4.372241
0.8213332	59.09509	-4.374470
0.8230000	59.12973	-4.377087
0.8246668	59.16216	-4.379850
0.8263332	59.19516	-4.382406
0.8280000	59.22850	-4.384442
0.8296668	59.26094	-4.386875
0.8313332	59.29520	-4.388941
0.8330000	59.32788	-4.391050
0.8346666	59.36086	-4.393133
0.8363334	59.39502	-4.394991
0.8380000	59.42735	-4.396697
0.8396668	59.46132	-4.398730
0.8413332	59.49366	-4.400497
0.8430000	59.52590	-4.402876
0.8446668	59.55942	-4.405072
0.8463334	59.59207	-4.407611
0.8480000	59.62525	-4.409548
0.8496668	59.65942	-4.411748
0.8513335	59.69074	-4.413771
0.8530000	59.72518	-4.415950
0.8546668	59.75789	-4.418292
0.8563332	59.79271	-4.420478
0.8580000	59.82470	-4.422720
0.8596668	59.85847	-4.424612
0.8613334	59.89102	-4.426384
0.8630000	59.92442	-4.428076
0.8646668	59.95666	-4.430180
0.8663334	59.99065	-4.432043
0.8680000	60.02313	-4.434700
0.8696668	60.05732	-4.436763
0.8713332	60.09000	-4.439125
0.8730000	60.12210	-4.441230
0.8746668	60.15521	-4.443224
0.8763332	60.18850	-4.445166
0.8780000	60.22218	-4.447128
0.8796668	60.25520	-4.450008
0.8813332	60.28868	-4.452480
0.8830000	60.32174	-4.454188
0.8846666	60.35394	-4.456256
0.8863334	60.38720	-4.458128
0.8880000	60.42152	-4.460400
0.8896668	60.45485	-4.462436
0.8913334	60.48844	-4.464336
0.8930000	60.51952	-4.466162
0.8946668	60.55332	-4.468201
0.8963332	60.58593	-4.470094
0.8979999	60.61948	-4.472000
0.8996668	60.65291	-4.473639
0.9013332	60.68660	-4.475606
0.9029999	60.71851	-4.478066
0.9046668	60.75274	-4.480370
0.9063332	60.78608	-4.482704
0.9080000	60.81866	-4.484903
0.9096666	60.85176	-4.486959
0.9113332	60.88584	-4.489042
0.9130000	60.91764	-4.491222
0.9146668	60.95165	-4.493592
0.9163332	60.98557	-4.495820
0.9180000	61.01849	-4.497704
0.9196668	61.05045	-4.499361
0.9213332	61.08432	-4.501430
0.9229999	61.11707	-4.503504
0.9246666	61.15003	-4.505455
0.9263332	61.18371	-4.507418
0.9279999	61.21732	-4.509624
0.9296666	61.25124	-4.511604
0.9313332	61.28244	-4.513731
0.9330000	61.31601	-4.515844
0.9346666	61.34934	-4.517890
0.9363332	61.38274	-4.520038
0.9379999	61.41516	-4.521974
0.9396668	61.44838	-4.524132
0.9413332	61.48105	-4.525996
0.9429999	61.51522	-4.527930
0.9446668	61.54808	-4.530051
0.9463332	61.58062	-4.532394
0.9479999	61.61396	-4.534653
0.9496666	61.64662	-4.536702
0.9513332	61.68043	-4.539082
0.9529999	61.71366	-4.541560
0.9546668	61.74761	-4.543654
0.9563332	61.78015	-4.545398
0.9580001	61.81274	-4.547422
0.9596668	61.84609	-4.549580
0.9613334	61.87964	-4.551654
0.9630001	61.91205	-4.553526
0.9646668	61.94676	-4.555856
0.9663334	61.97994	-4.558164
0.9680000	62.01174	-4.560539
0.9696668	62.04590	-4.562607
0.9713334	62.07769	-4.564743
0.9730000	62.11158	-4.567221
0.9746668	62.14528	-4.569250
0.9763335	62.17859	-4.571418
0.9780000	62.21098	-4.573780
0.9796668	62.24465	-4.575990
0.9813332	62.27812	-4.578276
0.9830000	62.31062	-4.580602
0.9846668	62.34402	-4.582630
0.9863334	62.37639	-4.585000
0.9880000	62.41054	-4.587263
0.9896668	62.44478	-4.589134
0.9913334	62.47676	-4.591537
0.9930000	62.50934	-4.593924
0.9946668	62.54274	-4.596360
0.9963332	62.57570	-4.598785
0.9980000	62.60918	-4.601067
0.9996668	62.64160	-4.603111
1.001333	62.67596	-4.605594
1.003000	62.70920	-4.608162
1.004667	62.74168	-4.610240
1.006333	62.77436	-4.612598
1.008000	62.80844	-4.615350
1.009667	62.84011	-4.618088
1.011333	62.87418	-4.620930
1.013000	62.90736	-4.623347
1.014667	62.94091	-4.625593
1.016333	62.97387	-4.627752
1.018000	63.00707	-4.630452
1.019667	63.04045	-4.633402
1.021333	63.07254	-4.636246
1.023000	63.10584	-4.638953
1.024667	63.13970	-4.642197
1.026333	63.17224	-4.644466
1.028000	63.20506	-4.647412
1.029667	63.23806	-4.649969
1.031333	63.27168	-4.652666
1.033000	63.30582	-4.655178
1.034667	63.33805	-4.658016
1.036333	63.37188	-4.660516
1.038000	63.40459	-4.663178
1.039667	63.43858	-4.666187
1.041333	63.47088	-4.668900
1.043000	63.50432	-4.671436
1.044667	63.53810	-4.674579
1.046333	63.57109	-4.678051
1.048000	63.60324	-4.680734
1.049666	63.63629	-4.683742
1.051333	63.67012	-4.686943
1.053000	63.70382	-4.689442
1.054666	63.73610	-4.692174
1.056333	63.76916	-4.695226
1.058000	63.80274	-4.699185
1.059666	63.83535	-4.703009
1.061333	63.86890	-4.705921
1.063000	63.90234	-4.708658
1.064666	63.93535	-4.711912
1.066333	63.96820	-4.715219
1.068000	64.00238	-4.719297
1.069666	64.03528	-4.722837
1.071333	64.06731	-4.725904
1.073000	64.10095	-4.729152
1.074666	64.13408	-4.732650
1.076333	64.16750	-4.735869
1.078000	64.20056	-4.739514
1.079667	64.23298	-4.742110
1.081333	64.26804	-4.745498
1.083000	64.30078	-4.748413
1.084667	64.33375	-4.751786
1.086334	64.36665	-4.755307
1.088000	64.39994	-4.759659
1.089667	64.43320	-4.763391
1.091334	64.46631	-4.767266
1.093000	64.49880	-4.771175
1.094666	64.53226	-4.774885
1.096334	64.56533	-4.778778
1.098000	64.59780	-4.783032
1.099666	64.63091	-4.786320
1.101334	64.66375	-4.790390
1.103000	64.69690	-4.793839
1.104667	64.73097	-4.797165
1.106333	64.76283	-4.800793
1.108000	64.79660	-4.804880
1.109667	64.82984	-4.807746
1.111334	64.86282	-4.812586
1.113000	64.89597	-4.816601
1.114667	64.92902	-4.821252
1.116334	64.96209	-4.825894
1.118000	64.99560	-4.829604
1.119666	65.02902	-4.834424
1.121333	65.06176	-4.838860
1.123000	65.09472	-4.842152
1.124666	65.12813	-4.846542
1.126333	65.16015	-4.850774
1.128000	65.19355	-4.854203
1.129667	65.22706	-4.859440
1.131333	65.26120	-4.864473
1.133000	65.29271	-4.869539
1.134666	65.32728	-4.874332
1.136334	65.35942	-4.878890
1.138000	65.39240	-4.884117
1.139666	65.42480	-4.889523
1.141334	65.45924	-4.892731
1.143000	65.49137	-4.897754
1.144666	65.52490	-4.902810
1.146333	65.55694	-4.908280
1.148000	65.59158	-4.913290
1.149666	65.62388	-4.918314
1.151333	65.65792	-4.922850
1.153000	65.69106	-4.929420
1.154667	65.72302	-4.934630
1.156333	65.75655	-4.939652
1.158000	65.78910	-4.946461
1.159666	65.82246	-4.951436
1.161333	65.85603	-4.957644
1.163000	65.88821	-4.961996
1.164666	65.92164	-4.968511
1.166333	65.95445	-4.974966
1.168000	65.98642	-4.979726
1.169666	66.02071	-4.986892
1.171333	66.05331	-4.993780
1.173000	66.08668	-4.999664
1.174666	66.11920	-5.006231
1.176333	66.15387	-5.012600
1.178000	66.18468	-5.018797
1.179666	66.21812	-5.025620
1.181333	66.25074	-5.032646
1.183000	66.28418	-5.040724
1.184666	66.31597	-5.047656
1.186333	66.35050	-5.056652
1.188000	66.38300	-5.063724
1.189666	66.41503	-5.072734
1.191333	66.44828	-5.079786
1.193000	66.48166	-5.087363
1.194666	66.51474	-5.096334
1.196333	66.54716	-5.104433
1.198000	66.57956	-5.114521
1.199666	66.61241	-5.123628
1.201333	66.64529	-5.133946
1.203000	66.67866	-5.141546
1.204667	66.71190	-5.151684
1.206333	66.74310	-5.163139
1.208000	66.77540	-5.173320
1.209667	66.81056	-5.185200
1.211334	66.84214	-5.195377
1.213000	66.87475	-5.206472
1.214667	66.90831	-5.218487
1.216334	66.94078	-5.230679
1.218000	66.97388	-5.242713
1.219666	67.00638	-5.254494
1.221334	67.03910	-5.269363
1.223000	67.07109	-5.282560
1.224666	67.10407	-5.297040
1.226334	67.13641	-5.312320
1.228000	67.16866	-5.325976
1.229667	67.20022	-5.341388
1.231333	67.23370	-5.358591
1.233000	67.26560	-5.374144
1.234667	67.29847	-5.391347
1.236334	67.33100	-5.407747
1.238000	67.36312	-5.426045
1.239667	67.39556	-5.443794
1.241334	67.42772	-5.461909
1.243000	67.46112	-5.480302
1.244666	67.49250	-5.501160
1.246333	67.52437	-5.519364
1.248000	67.55718	-5.540979
1.249666	67.58988	-5.561062
1.251333	67.62162	-5.582239
1.253000	67.65397	-5.603306
1.254667	67.68559	-5.624096
1.256333	67.71754	-5.646943
1.258000	67.75094	-5.668198
1.259666	67.78204	-5.691021
1.261334	67.81448	-5.713552
1.263000	67.84570	-5.736926
1.264666	67.87874	-5.759780
1.266334	67.91090	-5.782449
1.268000	67.94226	-5.805434
1.269666	67.97461	-5.829636
1.271333	68.00549	-5.853422
1.273000	68.03844	-5.877947
1.274666	68.07055	-5.903660
1.276333	68.10232	-5.925642
1.278000	68.13481	-5.949962
1.279667	68.16570	-5.972904
1.281333	68.19891	-5.998300
1.283000	68.23025	-6.024102
1.284666	68.26210	-6.048720
1.286333	68.29416	-6.073130
1.288000	68.32671	-6.099465
1.289666	68.35829	-6.123281
1.291333	68.39143	-6.147652
1.293000	68.42299	-6.174144
1.294667	68.45430	-6.200613
1.296333	68.48616	-6.224271
1.298000	68.51843	-6.249442
1.299666	68.55051	-6.276304
1.301333	68.58261	-6.301292
1.303000	68.61503	-6.327265
1.304666	68.64640	-6.354011
1.306333	68.67895	-6.380169
1.308000	68.70980	-6.406915
1.309666	68.74207	-6.432159
1.311333	68.77432	-6.459003
1.313000	68.80518	-6.484402
1.314666	68.83694	-6.509805
1.316333	68.86984	-6.536448
1.318000	68.90066	-6.562511
1.319667	68.93347	-6.589658
1.321333	68.96550	-6.614698
1.323000	68.99706	-6.640925
1.324666	69.02960	-6.667958
1.326333	69.06234	-6.693530
1.328000	69.09350	-6.720214
1.329667	69.12450	-6.747220
1.331333	69.15689	-6.772974
1.333000	69.18882	-6.799571
1.334667	69.22050	-6.825460
1.336333	69.25258	-6.853890
1.338000	69.28432	-6.879484
1.339667	69.31634	-6.905101
1.341333	69.34882	-6.931431
1.343000	69.37898	-6.958255
1.344667	69.41238	-6.983285
1.346334	69.44440	-7.009204
1.348000	69.47616	-7.035875
1.349667	69.50839	-7.062732
1.351334	69.53934	-7.088441
1.353000	69.57329	-7.112974
1.354667	69.60363	-7.140398
1.356333	69.63611	-7.166184
1.358000	69.66788	-7.191235
1.359667	69.69951	-7.216516
1.361333	69.73116	-7.243444
1.363000	69.76359	-7.266510
1.364667	69.79576	-7.293166
1.366333	69.82736	-7.317878
1.368000	69.85969	-7.341243
1.369667	69.89124	-7.367212
1.371333	69.92313	-7.391310
1.373000	69.95510	-7.415932
1.374667	69.98794	-7.439878
1.376333	70.01991	-7.463129
1.378000	70.05120	-7.487638
1.379667	70.08452	-7.510622
1.381333	70.11701	-7.532506
1.383000	70.14756	-7.554634
1.384666	70.17954	-7.576722
1.386333	70.21182	-7.598652
1.388000	70.24462	-7.621112
1.389666	70.27719	-7.642632
1.391333	70.30900	-7.662184
1.393000	70.34128	-7.683203
1.394667	70.37322	-7.704381
1.396333	70.40540	-7.725696
1.398000	70.43782	-7.744522
1.399667	70.47038	-7.763530
1.401333	70.50335	-7.781764
1.403000	70.53428	-7.802666
1.404667	70.56697	-7.819250
1.406333	70.59878	-7.838556
1.408000	70.63188	-7.854346
1.409666	70.66534	-7.870937
1.411333	70.69714	-7.887774
1.413000	70.72995	-7.905074
1.414666	70.76284	-7.921298
1.416333	70.79456	-7.937609
1.418000	70.82776	-7.952875
1.419667	70.86024	-7.965324
1.421333	70.89234	-7.979602
1.423000	70.92572	-7.994528
1.424666	70.95762	-8.008374
1.426333	70.98981	-8.020981
1.428000	71.02415	-8.033626
1.429666	71.05578	-8.046303
1.431333	71.08784	-8.059692
1.433000	71.12197	-8.071168
1.434666	71.15449	-8.082665
1.436333	71.18668	-8.092645
1.438000	71.21960	-8.103707
1.439666	71.25230	-8.114172
1.441333	71.28509	-8.122214
1.443000	71.31800	-8.130004
1.444667	71.35156	-8.139399
1.446333	71.38290	-8.148647
1.448000	71.41629	-8.157081
1.449666	71.45068	-8.163665
1.451333	71.48316	-8.170999
1.453000	71.51542	-8.176476
1.454667	71.54882	-8.182325
1.456333	71.58288	-8.190216
1.458000	71.61620	-8.194465
1.459667	71.64778	-8.199597
1.461333	71.68145	-8.204440
1.463000	71.71386	-8.208388
1.464667	71.74731	-8.212086
1.466333	71.78182	-8.216066
1.468000	71.81319	-8.219735
1.469667	71.84684	-8.222476
1.471334	71.88120	-8.224374
1.473000	71.91322	-8.228046
1.474667	71.94641	-8.229230
1.476334	71.98046	-8.230118
1.478000	72.01370	-8.232720
1.479667	72.04811	-8.232079
1.481333	72.08130	-8.232874
1.483000	72.11462	-8.233257
1.484667	72.14685	-8.233887
1.486333	72.18008	-8.233216
1.488000	72.21465	-8.232118
1.489667	72.24756	-8.231903
1.491333	72.28130	-8.230849
1.493000	72.31418	-8.229789
1.494667	72.34726	-8.227296
1.496333	72.38140	-8.225762
1.498000	72.41528	-8.223560
1.499667	72.44978	-8.222268
1.501333	72.48300	-8.217919
1.503000	72.51588	-8.216495
1.504667	72.54880	-8.212824
1.506333	72.58210	-8.209844
1.508000	72.61553	-8.205880
1.509666	72.64969	-8.201624
1.511333	72.68390	-8.197296
1.513000	72.71756	-8.191936
1.514666	72.75051	-8.188178
1.516333	72.78474	-8.183552
1.518000	72.81724	-8.177018
1.519667	72.85175	-8.171618
1.521333	72.88484	-8.167011
1.523000	72.91832	-8.160918
1.524667	72.95330	-8.155494
1.526333	72.98688	-8.148943
1.528000	73.02060	-8.143103
1.529667	73.05286	-8.136270
1.531333	73.08793	-8.128306
1.533000	73.12202	-8.122741
1.534666	73.15420	-8.115586
1.536333	73.18938	-8.107599
1.538000	73.22206	-8.101570
1.539666	73.25632	-8.094655
1.541333	73.28889	-8.087134
1.543000	73.32466	-8.079975
1.544667	73.35735	-8.071402
1.546333	73.39180	-8.065290
1.548000	73.42528	-8.057408
1.549666	73.45859	-8.049686
1.551333	73.49330	-8.041215
1.553000	73.52632	-8.034798
1.554666	73.56060	-8.026942
1.556333	73.59481	-8.017918
1.558000	73.62815	-8.010309
1.559666	73.66209	-8.002361
1.561333	73.69592	-7.994363
1.563000	73.72970	-7.987011
1.564666	73.76441	-7.977598
1.566333	73.79844	-7.969740
1.568000	73.83172	-7.960412
1.569667	73.86560	-7.951066
1.571333	73.89831	-7.942193
1.573000	73.93352	-7.934638
1.574666	73.96742	-7.925863
1.576333	74.00010	-7.917563
1.578000	74.03441	-7.908378
1.579667	74.06861	-7.901070
1.581333	74.10230	-7.892201
1.583000	74.13691	-7.882878
1.584667	74.16960	-7.873134
1.586333	74.20444	-7.864798
1.588000	74.23804	-7.855194
1.589667	74.27210	-7.847358
1.591333	74.30598	-7.839406
1.593000	74.33950	-7.829962
1.594667	74.37406	-7.820041
1.596334	74.40753	-7.811148
1.598000	74.44170	-7.802599
1.599667	74.47505	-7.793934
1.601334	74.50832	-7.784647
1.603000	74.54311	-7.776124
1.604667	74.57578	-7.767960
1.606333	74.61068	-7.759986
1.608000	74.64374	-7.750470
1.609666	74.67813	-7.741074
1.611334	74.71166	-7.732476
1.613000	74.74570	-7.723766
1.614667	74.77947	-7.715099
1.616333	74.81350	-7.706343
1.618000	74.84844	-7.696534
1.619667	74.88184	-7.687592
1.621333	74.91540	-7.678900
1.623000	74.94937	-7.671080
1.624666	74.98294	-7.662753
1.626334	75.01626	-7.653765
1.628000	75.05225	-7.643775
1.629667	75.08461	-7.635629
1.631333	75.11774	-7.626314
1.633000	75.15216	-7.618818
1.634666	75.18613	-7.609761
1.636333	75.21936	-7.600744
1.638000	75.25386	-7.592079
1.639667	75.28730	-7.583798
1.641333	75.32302	-7.574106
1.643000	75.35636	-7.566694
1.644667	75.38907	-7.557239
1.646333	75.42340	-7.549078
1.648000	75.45596	-7.540996
1.649666	75.49158	-7.532266
1.651333	75.52548	-7.523180
1.653000	75.55876	-7.515080
1.654667	75.59253	-7.506706
1.656333	75.62738	-7.499164
1.658000	75.66016	-7.489822
1.659666	75.69343	-7.480872
1.661333	75.72806	-7.473189
1.663000	75.76224	-7.465894
1.664667	75.79468	-7.457650
1.666333	75.82984	-7.449718
1.668000	75.86382	-7.440908
1.669667	75.89692	-7.433860
1.671333	75.93040	-7.426262
1.673000	75.96432	-7.417176
1.674666	75.99903	-7.409585
1.676333	76.03162	-7.402235
1.678000	76.06551	-7.393653
1.679667	76.10082	-7.386841
1.681333	76.13421	-7.378647
1.683000	76.16803	-7.372012
1.684666	76.20066	-7.363997
1.686333	76.23536	-7.355808
1.688000	76.26876	-7.347794
1.689666	76.30361	-7.341439
1.691333	76.33657	-7.335672
1.693000	76.37028	-7.327040
1.694667	76.40481	-7.319789
1.696333	76.43829	-7.312739
1.698000	76.47142	-7.304013
1.699666	76.50547	-7.295820
1.701333	76.53894	-7.290122
1.703000	76.57380	-7.282113
1.704667	76.60722	-7.274534
1.706333	76.64043	-7.266886
1.708000	76.67444	-7.260824
1.709667	76.70934	-7.254124
1.711334	76.74264	-7.248608
1.713000	76.77672	-7.240664
1.714667	76.80890	-7.233468
1.716333	76.84394	-7.226148
1.718000	76.87715	-7.220034
1.719667	76.91128	-7.213880
1.721333	76.94415	-7.207765
1.723000	76.97771	-7.200690
1.724667	77.01255	-7.195271
1.726334	77.04578	-7.187898
1.728000	77.07988	-7.180755
1.729667	77.11301	-7.174756
1.731333	77.14757	-7.167110
1.733000	77.18110	-7.160790
1.734666	77.21450	-7.154035
1.736334	77.24872	-7.148726
1.738000	77.28164	-7.141784
1.739667	77.31637	-7.135034
1.741333	77.34918	-7.129536
1.743000	77.38340	-7.122669
1.744667	77.41736	-7.118000
1.746333	77.45029	-7.111472
1.748000	77.48413	-7.104738
1.749666	77.51865	-7.097802
1.751334	77.55234	-7.091734
1.753000	77.58551	-7.086328
1.754667	77.61884	-7.080694
1.756333	77.65353	-7.074286
1.758000	77.68785	-7.069229
1.759666	77.72124	-7.063435
1.761333	77.75524	-7.057505
1.763000	77.78881	-7.053157
1.764667	77.82124	-7.044718
1.766333	77.85499	-7.042022
1.768000	77.88889	-7.034944
1.769667	77.92224	-7.028759
1.771333	77.95651	-7.023310
1.773000	77.98970	-7.018110
1.774666	78.02422	-7.013650
1.776333	78.05698	-7.008035
1.778000	78.09256	-7.003488
1.779667	78.12495	-6.998238
1.781333	78.15809	-6.991889
1.783000	78.19182	-6.986897
1.784666	78.22510	-6.982524
1.786333	78.25938	-6.977970
1.788000	78.29257	-6.972584
1.789667	78.32585	-6.966671
1.791333	78.36030	-6.960980
1.793000	78.39392	-6.956651
1.794667	78.42918	-6.951528
1.796333	78.46192	-6.946162
1.798000	78.49508	-6.941397
1.799666	78.52807	-6.936929
1.801333	78.56262	-6.932144
1.803000	78.59641	-6.926782
1.804667	78.62912	-6.922381
1.806333	78.66322	-6.918192
1.808000	78.69824	-6.913411
1.809666	78.73046	-6.907974
1.811333	78.76431	-6.903578
1.813000	78.79824	-6.899112
1.814666	78.83247	-6.894763
1.816333	78.86550	-6.890593
1.818000	78.89907	-6.886975
1.819667	78.93381	-6.882856
1.821333	78.96662	-6.877261
1.823000	78.99993	-6.873596
1.824666	79.03268	-6.868828
1.826333	79.06745	-6.865215
1.828000	79.10095	-6.860907
1.829667	79.13455	-6.854856
1.831333	79.16772	-6.851260
1.833000	79.20243	-6.847049
1.834667	79.23516	-6.843426
1.836334	79.26936	-6.839514
1.838000	79.30271	-6.834700
1.839667	79.33585	-6.830988
1.841333	79.36962	-6.826658
1.843000	79.40484	-6.824254
1.844667	79.43587	-6.821255
1.846333	79.47016	-6.816991
1.848000	79.50393	-6.813260
1.849666	79.53801	-6.808319
1.851334	79.57193	-6.802638
1.853000	79.60512	-6.799550
1.854667	79.63903	-6.795844
1.856333	79.67257	-6.793362
1.858000	79.70480	-6.789588
1.859666	79.73955	-6.785558
1.861334	79.77325	-6.783774
1.863000	79.80691	-6.779968
1.864667	79.84068	-6.776480
1.866333	79.87439	-6.773111
1.868000	79.90726	-6.768212
1.869667	79.94209	-6.765112
1.871333	79.97500	-6.759656
1.873000	80.00918	-6.757210
1.874666	80.04260	-6.753795
1.876333	80.07444	-6.750784
1.878000	80.10940	-6.747895
1.879666	80.14180	-6.744780
1.881333	80.17624	-6.741304
1.883000	80.21006	-6.737536
1.884666	80.24329	-6.734756
1.886333	80.27652	-6.731839
1.888000	80.30997	-6.728796
1.889666	80.34422	-6.725544
1.891333	80.37762	-6.722579
1.893000	80.41028	-6.719661
1.894667	80.44457	-6.716398
1.896334	80.47751	-6.713269
1.898000	80.51200	-6.711230
1.899667	80.54480	-6.708740
1.901333	80.57986	-6.704995
1.903000	80.61157	-6.702618
1.904667	80.64619	-6.699491
1.906334	80.67951	-6.696150
1.908000	80.71304	-6.693081
1.909667	80.74684	-6.690088
1.911333	80.78031	-6.687624
1.913000	80.81353	-6.684747
1.914667	80.84688	-6.682395
1.916333	80.88106	-6.679319
1.918000	80.91534	-6.676668
1.919667	80.94750	-6.673839
1.921333	80.98116	-6.671765
1.923000	81.01599	-6.669782
1.924666	81.04785	-6.667331
1.926334	81.08207	-6.665084
1.928000	81.11578	-6.661822
1.929667	81.14950	-6.659618
1.931333	81.18184	-6.657318
1.933000	81.21540	-6.654624
1.934666	81.24884	-6.652500
1.936334	81.28300	-6.650758
1.938000	81.31726	-6.648882
1.939667	81.35147	-6.646424
1.941333	81.38419	-6.643863
1.943000	81.41638	-6.640970
1.944667	81.45132	-6.638444
1.946333	81.48500	-6.635845
1.948000	81.51820	-6.633950
1.949667	81.55188	-6.631358
1.951333	81.58531	-6.629300
1.953000	81.61806	-6.626642
1.954666	81.65186	-6.624676
1.956333	81.68587	-6.622688
1.958000	81.71876	-6.620390
1.959667	81.75256	-6.618336
1.961333	81.78560	-6.616455
1.963000	81.82000	-6.614411
1.964666	81.85351	-6.612489
1.966333	81.88772	-6.610832
1.968000	81.92053	-6.608712
1.969667	81.95331	-6.606835
1.971333	81.98806	-6.605034
1.973000	82.02039	-6.603070
1.974666	82.05511	-6.600851
1.976334	82.08853	-6.598782
1.978000	82.12176	-6.596782
1.979667	82.15540	-6.594912
1.981333	82.18890	-6.593568
1.983000	82.22215	-6.591772
1.984666	82.25470	-6.590088
1.986334	82.28741	-6.588074
1.988000	82.32218	-6.586457
1.989667	82.35676	-6.584526
1.991333	82.38800	-6.582579
1.993000	82.42282	-6.580637
1.994667	82.45672	-6.578864
1.996333	82.48962	-6.576982
1.998000	82.52360	-6.575024
1.999666	82.55663	-6.573520
2.001333	82.58991	-6.571926
2.003000	82.62328	-6.570324
2.004666	82.65796	-6.568556
2.006333	82.69082	-6.566782
2.008000	82.72382	-6.564920
2.009666	82.75782	-6.563112
2.011333	82.79108	-6.561309
2.013000	82.82460	-6.559700
2.014666	82.85937	-6.558035
2.016333	82.89194	-6.556184
2.018000	82.92504	-6.554790
2.019667	82.95852	-6.553244
2.021334	82.99254	-6.551671
2.023000	83.02584	-6.550120
2.024667	83.05874	-6.548422
2.026333	83.09212	-6.546643
2.028000	83.12668	-6.545108
2.029667	83.15775	-6.543735
2.031334	83.19406	-6.542054
2.033000	83.22734	-6.540360
2.034667	83.25970	-6.539066
2.036333	83.29416	-6.537744
2.038000	83.32762	-6.536479
2.039667	83.36063	-6.535211
2.041333	83.39452	-6.533809
2.043000	83.42805	-6.532446
2.044667	83.46106	-6.530970
2.046333	83.49504	-6.529763
2.048000	83.52820	-6.528584
2.049666	83.56056	-6.527281
2.051334	83.59595	-6.525970
2.053000	83.62757	-6.524660
2.054667	83.66080	-6.523084
2.056333	83.69586	-6.521704
2.058000	83.72872	-6.520300
2.059666	83.76188	-6.518747
2.061334	83.79689	-6.517543
2.063000	83.82926	-6.516443
2.064667	83.86220	-6.515191
2.066333	83.89550	-6.513782
2.068000	83.93036	-6.512250
2.069667	83.96288	-6.511031
2.071333	83.99762	-6.509769
2.073000	84.02960	-6.508615
2.074667	84.06334	-6.507594
2.076333	84.09718	-6.506494
2.078000	84.13101	-6.505264
2.079666	84.16424	-6.503920
2.081333	84.19764	-6.502720
2.083000	84.23231	-6.501582
2.084667	84.26351	-6.500436
2.086333	84.29741	-6.499274
2.088000	84.33234	-6.498038
2.089666	84.36428	-6.496840
2.091333	84.39813	-6.495759
2.093000	84.43108	-6.494626
2.094667	84.46542	-6.493613
2.096333	84.49875	-6.492470
2.098000	84.53231	-6.491343
2.099666	84.56504	-6.490144
2.101334	84.59897	-6.489030
2.103000	84.63228	-6.488004
2.104667	84.66516	-6.487053
2.106333	84.69978	-6.486120
2.108000	84.73408	-6.485244
2.109666	84.76659	-6.484376
2.111334	84.80026	-6.483438
2.113000	84.83244	-6.482556
2.114667	84.86661	-6.481601
2.116333	84.90001	-6.480414
2.118000	84.93360	-6.479505
2.119667	84.96695	-6.478760
2.121333	85.00040	-6.477942
2.123000	85.03418	-6.477081
2.124666	85.06655	-6.476215
2.126333	85.10072	-6.475432
2.128000	85.13488	-6.474621
2.129666	85.16793	-6.473742
2.131333	85.20274	-6.472982
2.133000	85.23408	-6.472325
2.134666	85.26874	-6.471714
2.136333	85.30194	-6.471052
2.138000	85.33495	-6.470414
2.139666	85.36828	-6.469601
2.141333	85.40301	-6.468719
2.143000	85.43586	-6.467956
2.144667	85.46766	-6.467150
2.146334	85.50281	-6.466345
2.148000	85.53578	-6.465620
2.149667	85.56900	-6.464934
2.151333	85.60295	-6.464348
2.153000	85.63671	-6.463715
2.154667	85.67049	-6.463090
2.156334	85.70272	-6.462491
2.158000	85.73547	-6.461810
2.159667	85.77091	-6.461174
2.161333	85.80429	-6.460524
2.163000	85.83651	-6.459821
2.164667	85.86994	-6.459260
2.166333	85.90391	-6.458662
2.168000	85.93689	-6.458068
2.169667	85.97068	-6.457450
2.171333	86.00360	-6.456895
2.173000	86.03736	-6.456391
2.174666	86.07062	-6.455876
2.176334	86.10401	-6.455336
2.178000	86.13821	-6.454630
2.179667	86.17212	-6.454080
2.181333	86.20514	-6.453532
2.183000	86.23803	-6.452974
2.184666	86.27134	-6.452484
2.186334	86.30605	-6.451957
2.188000	86.33834	-6.451400
2.189667	86.37156	-6.450858
2.191333	86.40504	-6.450263
2.193000	86.43906	-6.449722
2.194667	86.47301	-6.449240
2.196333	86.50445	-6.448788
2.198000	86.53872	-6.448305
2.199667	86.57231	-6.447754
2.201333	86.60509	-6.447265
2.203000	86.63884	-6.446836
2.204666	86.67416	-6.446470
2.206333	86.70519	-6.446109
2.208000	86.74014	-6.445753
2.209667	86.77320	-6.445387
2.211333	86.80672	-6.445002
2.213000	86.83985	-6.444611
2.214666	86.87352	-6.444244
2.216333	86.90714	-6.443900
2.218000	86.94088	-6.443591
2.219667	86.97406	-6.443303
2.221333	87.00702	-6.443052
2.223000	87.04031	-6.442810
2.224666	87.07330	-6.442544
2.226334	87.10775	-6.442224
2.228000	87.14169	-6.441891
2.229667	87.17455	-6.441554
2.231333	87.20891	-6.441224
2.233000	87.24109	-6.440881
2.234666	87.27418	-6.440562
2.236334	87.30836	-6.440253
2.238000	87.34071	-6.439941
2.239667	87.37531	-6.439618
2.241333	87.40894	-6.439298
2.243000	87.44238	-6.438990
2.244667	87.47532	-6.438684
2.246333	87.50856	-6.438359
2.248000	87.54274	-6.438060
2.249666	87.57609	-6.437756
2.251333	87.61014	-6.437450
2.253000	87.64246	-6.437114
2.254666	87.67581	-6.436798
2.256333	87.70976	-6.436489
2.258000	87.74406	-6.436210
2.259666	87.77597	-6.435946
2.261333	87.81024	-6.435712
2.263000	87.84374	-6.435492
2.264666	87.87634	-6.435296
2.266333	87.90969	-6.435117
2.268000	87.94348	-6.434949
2.269667	87.97669	-6.434778
2.271334	88.01047	-6.434601
2.273000	88.04389	-6.434400
2.274667	88.07718	-6.434199
2.276333	88.11087	-6.434015
2.278000	88.14276	-6.433839
2.279667	88.17832	-6.433664
2.281334	88.21024	-6.433488
2.283000	88.24371	-6.433310
2.284667	88.27697	-6.433132
2.286333	88.31038	-6.432954
2.288000	88.34480	-6.432771
2.289667	88.37726	-6.432588
2.291333	88.41122	-6.432405
2.293000	88.44426	-6.432220
2.294667	88.47757	-6.432032
2.296333	88.51124	-6.431847
2.298000	88.54491	-6.431660
2.299666	88.57856	-6.431470
2.301334	88.61144	-6.431280
2.303000	88.64508	-6.431084
2.304667	88.67731	-6.430887
2.306333	88.71238	-6.430689
2.308000	88.74493	-6.430492
2.309666	88.77765	-6.430297
2.311334	88.81225	-6.430100
2.313000	88.84564	-6.429906
2.314667	88.87856	-6.429710
2.316333	88.91230	-6.429512
2.318000	88.94553	-6.429316
2.319667	88.97980	-6.429118
2.321333	89.01244	-6.428918
2.323000	89.04658	-6.428716
2.324667	89.07956	-6.428516
2.326333	89.11341	-6.428316
2.328000	89.14605	-6.428113
2.329666	89.17955	-6.427911
2.331333	89.21314	-6.427710
2.333000	89.24584	-6.427510
2.334667	89.27921	-6.427310
2.336333	89.31257	-6.427113
2.338000	89.34726	-6.426916
2.339666	89.37988	-6.426720
2.341333	89.41342	-6.426526
2.343000	89.44672	-6.426332
2.344667	89.47984	-6.426139
2.346333	89.51376	-6.425945
2.348000	89.54774	-6.425750
2.349666	89.57950	-6.425554
2.351334	89.61406	-6.425360
2.353000	89.64856	-6.425164
2.354667	89.68062	-6.424968
2.356333	89.71500	-6.424771
2.358000	89.74844	-6.424576
2.359666	89.78071	-6.424379
2.361334	89.81420	-6.424182
2.363000	89.84804	-6.423985
2.364667	89.88254	-6.423789
2.366333	89.91505	-6.423593
2.368000	89.94863	-6.423398
2.369667	89.98109	-6.423204
2.371333	90.01470	-6.423009
2.373000	90.04886	-6.422813
2.374666	90.08220	-6.422616
2.376333	90.11509	-6.422418
2.378000	90.14820	-6.422220
2.379666	90.18228	-6.422024
2.381333	90.21538	-6.421828
2.383000	90.24881	-6.421631
2.384666	90.28169	-6.421437
2.386333	90.31528	-6.421245
2.388000	90.34942	-6.421054
2.389666	90.38256	-6.420862
2.391333	90.41634	-6.420671
2.393000	90.44882	-6.420480
2.394667	90.48172	-6.420293
2.396334	90.51548	-6.420106
2.398000	90.55034	-6.419919
2.399667	90.58264	-6.419732
2.401333	90.61644	-6.419547
2.403000	90.64968	-6.419360
2.404667	90.68447	-6.419174
2.406334	90.71699	-6.418987
2.408000	90.74972	-6.418800
2.409667	90.78360	-6.418614
2.411333	90.81603	-6.418426
2.413000	90.85047	-6.418238
2.414667	90.88397	-6.418050
2.416333	90.91580	-6.417860
2.418000	90.95074	-6.417672
2.419667	90.98390	-6.417484
2.421333	91.01689	-6.417294
2.423000	91.05076	-6.417106
2.424666	91.08414	-6.416918
2.426334	91.11769	-6.416729
2.428000	91.15109	-6.416540
2.429667	91.18488	-6.416352
2.431333	91.21722	-6.416162
2.433000	91.25144	-6.415972
2.434666	91.28454	-6.415781
2.436334	91.31816	-6.415590
2.438000	91.35232	-6.415400
2.439667	91.38505	-6.415210
2.441333	91.41908	-6.415021
2.443000	91.45158	-6.414834
2.444667	91.48632	-6.414645
2.446333	91.51843	-6.414456
2.448000	91.55249	-6.414263
2.449667	91.58481	-6.414068
2.451333	91.61812	-6.413873
2.453000	91.65199	-6.413678
2.454666	91.68493	-6.413482
2.456333	91.71908	-6.413287
2.458000	91.75230	-6.413091
2.459667	91.78634	-6.412894
2.461333	91.81909	-6.412695
2.463000	91.85336	-6.412495
2.464666	91.88702	-6.412295
2.466333	91.91949	-6.412090
2.468000	91.95360	-6.411884
2.469667	91.98556	-6.411672
2.471333	92.01920	-6.411460
2.473000	92.05201	-6.411246
2.474666	92.08710	-6.411031
2.476334	92.11890	-6.410816
2.478000	92.15378	-6.410597
2.479667	92.18684	-6.410379
2.481333	92.21970	-6.410160
2.483000	92.25272	-6.409940
2.484666	92.28688	-6.409718
2.486334	92.31981	-6.409496
2.488000	92.35470	-6.409270
2.489667	92.38689	-6.409044
2.491333	92.42097	-6.408814
2.493000	92.45431	-6.408587
2.494667	92.48768	-6.408356
2.496333	92.52106	-6.408124
2.498000	92.55482	-6.407890
2.499666	92.58634	-6.407654
2.501333	92.62131	-6.407416
2.503000	92.65468	-6.407172
2.504666	92.68769	-6.406906
2.506333	92.72272	-6.406641
2.508000	92.75484	-6.406373
2.509666	92.78782	-6.406084
2.511333	92.82197	-6.405810
2.513000	92.85500	-6.405523
2.514666	92.88914	-6.405210
2.516333	92.92239	-6.404887
2.518000	92.95578	-6.404518
2.519667	92.98798	-6.404122
2.521334	93.02297	-6.403706
2.523000	93.05556	-6.403301
2.524667	93.08954	-6.402896
2.526333	93.12343	-6.402500
2.528000	93.15688	-6.402109
2.529667	93.18996	-6.401698
2.531334	93.22332	-6.401240
2.533000	93.25647	-6.400787
2.534667	93.29051	-6.400322
2.536333	93.32316	-6.399868
2.538000	93.35699	-6.399410
2.539667	93.39031	-6.398915
2.541333	93.42321	-6.398400
2.543000	93.45774	-6.397872
2.544667	93.49004	-6.397358
2.546333	93.52348	-6.396795
2.548000	93.55695	-6.396144
2.549666	93.59055	-6.395542
2.551334	93.62476	-6.394934
2.553000	93.65853	-6.394249
2.554667	93.69094	-6.393560
2.556333	93.72464	-6.392942
2.558000	93.75884	-6.392349
2.559666	93.79275	-6.391710
2.561334	93.82641	-6.391018
2.563000	93.85905	-6.390240
2.564667	93.89176	-6.389411
2.566333	93.92492	-6.388602
2.568000	93.95874	-6.387720
2.569667	93.99166	-6.386682
2.571333	94.02566	-6.385637
2.573000	94.05872	-6.384678
2.574667	94.09339	-6.383790
2.576333	94.12588	-6.382787
2.578000	94.15845	-6.381828
2.579666	94.19188	-6.380778
2.581333	94.22589	-6.379788
2.583000	94.25856	-6.378704
2.584667	94.29380	-6.377594
2.586333	94.32568	-6.376334
2.588000	94.36011	-6.374966
2.589666	94.39312	-6.373623
2.591333	94.42621	-6.372344
2.593000	94.45991	-6.371124
2.594667	94.49426	-6.369874
2.596333	94.52851	-6.368530
2.598000	94.56141	-6.367126
2.599667	94.59399	-6.365531
2.601333	94.62719	-6.364016
2.603000	94.66047	-6.362606
2.604667	94.69497	-6.361030
2.606333	94.72844	-6.359600
2.608000	94.76191	-6.358084
2.609667	94.79524	-6.356644
2.611334	94.82900	-6.355215
2.613000	94.86132	-6.353832
2.614667	94.89507	-6.352330
2.616333	94.92831	-6.350860
2.618000	94.96262	-6.349138
2.619667	94.99518	-6.347514
2.621333	95.03038	-6.345826
2.623000	95.06338	-6.344275
2.624667	95.09586	-6.342684
2.626333	95.12968	-6.341187
2.628000	95.16303	-6.339368
2.629666	95.19669	-6.337546
2.631333	95.22975	-6.335865
2.633000	95.26350	-6.334204
2.634667	95.29738	-6.332175
2.636333	95.33081	-6.330214
2.638000	95.36402	-6.328300
2.639666	95.39765	-6.326199
2.641333	95.43131	-6.324222
2.643000	95.46391	-6.322176
2.644667	95.49757	-6.320072
2.646334	95.53152	-6.318161
2.648000	95.56422	-6.315952
2.649667	95.59922	-6.313948
2.651333	95.63214	-6.311734
2.653000	95.66598	-6.309576
2.654667	95.69889	-6.307390
2.656334	95.73236	-6.305206
2.658000	95.76538	-6.303277
2.659667	95.79922	-6.301324
2.661333	95.83195	-6.299091
2.663000	95.86570	-6.296892
2.664667	95.90124	-6.294699
2.666333	95.93328	-6.292693
2.668000	95.96672	-6.290540
2.669667	95.99968	-6.288521
2.671333	96.03457	-6.286310
2.673000	96.06679	-6.284148
2.674667	96.10012	-6.282136
2.676333	96.13434	-6.280002
2.678000	96.16720	-6.277729
2.679667	96.20175	-6.275493
2.681333	96.23337	-6.273370
2.683000	96.26847	-6.271222
2.684667	96.30158	-6.269120
2.686334	96.33531	-6.266863
2.688000	96.36863	-6.264600
2.689667	96.40234	-6.262250
2.691333	96.43566	-6.259795
2.693000	96.46894	-6.257641
2.694667	96.50212	-6.255250
2.696333	96.53619	-6.253306
2.698000	96.56922	-6.250940
2.699667	96.60336	-6.248444
2.701333	96.63826	-6.245937
2.703000	96.66975	-6.243412
2.704666	96.70298	-6.241181
2.706333	96.73766	-6.238931
2.708000	96.77124	-6.236791
2.709667	96.80449	-6.234366
2.711333	96.83887	-6.231590
2.713000	96.87131	-6.229066
2.714666	96.90569	-6.226441
2.716333	96.93836	-6.223948
2.718000	96.97241	-6.221010
2.719667	97.00616	-6.218635
2.721333	97.03964	-6.216318
2.723000	97.07291	-6.213716
2.724667	97.10653	-6.211169
2.726333	97.14022	-6.207938
2.728000	97.17304	-6.204976
2.729667	97.20663	-6.202732
2.731333	97.24019	-6.200112
2.733000	97.27394	-6.196974
2.734667	97.30658	-6.194530
2.736334	97.33999	-6.191965
2.738000	97.37431	-6.189009
2.739667	97.40735	-6.186313
2.741333	97.44090	-6.183354
2.743000	97.47470	-6.180196
2.744667	97.50764	-6.177326
2.746333	97.54134	-6.174430
2.748000	97.57559	-6.171375
2.749667	97.60884	-6.167530
2.751333	97.64320	-6.164620
2.753000	97.67578	-6.161418
2.754666	97.70986	-6.158156
2.756333	97.74276	-6.154400
2.758000	97.77657	-6.151144
2.759667	97.81051	-6.148206
2.761333	97.84418	-6.145538
2.763000	97.87755	-6.142430
2.764666	97.91118	-6.139292
2.766333	97.94444	-6.135801
2.768000	97.97832	-6.132598
2.769667	98.01025	-6.130149
2.771334	98.04551	-6.126629
2.773000	98.07871	-6.123180
2.774667	98.11258	-6.119412
2.776333	98.14578	-6.116503
2.778000	98.17992	-6.112156
2.779667	98.21345	-6.108713
2.781334	98.24657	-6.105122
2.783000	98.28009	-6.101800
2.784667	98.31430	-6.098338
2.786333	98.34836	-6.094926
2.788000	98.38131	-6.091908
2.789667	98.41503	-6.088360
2.791333	98.44776	-6.084661
2.793000	98.48202	-6.080784
2.794667	98.51556	-6.076804
2.796333	98.54944	-6.072840
2.798000	98.58321	-6.068783
2.799667	98.61621	-6.065410
2.801333	98.64891	-6.061720
2.803000	98.68358	-6.057486
2.804667	98.71691	-6.053492
2.806333	98.75095	-6.049670
2.808000	98.78429	-6.045737
2.809667	98.81681	-6.042295
2.811334	98.85124	-6.037693
2.813000	98.88410	-6.033584
2.814667	98.91814	-6.028951
2.816333	98.95206	-6.024975
2.818000	98.98593	-6.020916
2.819667	99.01931	-6.017072
2.821333	99.05294	-6.012019
2.823000	99.08718	-6.007755
2.824667	99.12053	-6.004120
2.826333	99.15356	-5.999759
2.828000	99.18695	-5.994926
2.829666	99.22056	-5.991224
2.831333	99.25480	-5.986860
2.833000	99.28796	-5.981202
2.834667	99.32109	-5.975660
2.836333	99.35500	-5.972676
2.838000	99.38856	-5.967822
2.839666	99.42309	-5.964023
2.841333	99.45570	-5.959149
2.843000	99.48968	-5.953411
2.844667	99.52338	-5.947537
2.846333	99.55844	-5.943932
2.848000	99.59112	-5.940578
2.849667	99.62530	-5.934037
2.851333	99.65928	-5.929272
2.853000	99.69202	-5.924114
2.854667	99.72620	-5.919439
2.856333	99.75949	-5.914100
2.858000	99.79356	-5.907524
2.859667	99.82655	-5.903476
2.861334	99.86145	-5.898514
2.863000	99.89469	-5.893170
2.864667	99.92805	-5.888056
2.866333	99.96124	-5.882008
2.868000	99.99478	-5.876533
2.869667	100.0284	-5.871451
2.871333	100.0626	-5.868506
2.873000	100.0955	-5.861307
2.874667	100.1306	-5.857349
2.876333	100.1626	-5.850449
2.878000	100.1972	-5.846293
2.879666	100.2296	-5.841479
2.881333	100.2641	-5.835999
2.883000	100.2983	-5.829335
2.884667	100.3317	-5.823316
2.886333	100.3655	-5.818252
2.888000	100.3982	-5.812346
2.889666	100.4332	-5.806660
2.891333	100.4663	-5.800894
2.893000	100.5007	-5.795181
2.894667	100.5336	-5.788186
2.896334	100.5671	-5.781980
2.898000	100.6009	-5.776844
2.899667	100.6342	-5.770266
2.901333	100.6685	-5.764460
2.903000	100.7021	-5.758718
2.904667	100.7356	-5.752002
2.906334	100.7703	-5.745756
2.908000	100.8041	-5.739761
2.909667	100.8369	-5.733690
2.911333	100.8704	-5.727924
2.913000	100.9047	-5.721396
2.914667	100.9388	-5.715935
2.916333	100.9724	-5.709242
2.918000	101.0072	-5.701972
2.919667	101.0402	-5.696808
2.921333	101.0741	-5.688861
2.923000	101.1070	-5.682349
2.924667	101.1417	-5.675380
2.926333	101.1751	-5.669404
2.928000	101.2084	-5.662870
2.929667	101.2422	-5.655944
2.931333	101.2754	-5.648271
2.933000	101.3090	-5.641784
2.934667	101.3431	-5.633745
2.936334	101.3771	-5.627467
2.938000	101.4115	-5.620451
2.939667	101.4445	-5.614122
2.941333	101.4784	-5.606707
2.943000	101.5118	-5.599824
2.944667	101.5454	-5.591640
2.946333	101.5798	-5.585062
2.948000	101.6135	-5.577133
2.949667	101.6465	-5.569271
2.951333	101.6808	-5.562947
2.953000	101.7159	-5.553700
2.954666	101.7493	-5.546582
2.956333	101.7814	-5.539436
2.958000	101.8166	-5.530675
2.959667	101.8498	-5.523416
2.961333	101.8838	-5.514906
2.963000	101.9173	-5.507392
2.964666	101.9516	-5.499047
2.966333	101.9857	-5.491326
2.968000	102.0185	-5.483970
2.969667	102.0527	-5.475066
2.971333	102.0868	-5.466601
2.973000	102.1198	-5.459130
2.974667	102.1540	-5.449458
2.976333	102.1885	-5.440808
2.978000	102.2210	-5.433937
2.979667	102.2561	-5.424384
2.981333	102.2889	-5.415890
2.983000	102.3234	-5.407587
2.984667	102.3580	-5.399726
2.986334	102.3921	-5.390702
2.988000	102.4248	-5.383297
2.989667	102.4599	-5.373903
2.991333	102.4927	-5.365546
2.993000	102.5263	-5.356006
2.994667	102.5606	-5.346121
2.996333	102.5939	-5.338579
2.998000	102.6288	-5.329090
2.999667	102.6615	-5.320174
3.001333	102.6955	-5.311216
3.003000	102.7298	-5.302282
3.004666	102.7624	-5.291806
3.006333	102.7972	-5.281782
3.008000	102.8311	-5.274334
3.009667	102.8653	-5.264722
3.011333	102.9000	-5.253326
3.013000	102.9332	-5.244013
3.014666	102.9666	-5.234376
3.016333	103.0013	-5.225488
3.018000	103.0347	-5.216198
3.019667	103.0695	-5.205356
3.021334	103.1024	-5.195134
3.023000	103.1362	-5.186334
3.024667	103.1707	-5.177234
3.026333	103.2045	-5.167434
3.028000	103.2379	-5.156654
3.029667	103.2724	-5.145367
3.031334	103.3050	-5.135631
3.033000	103.3398	-5.124810
3.034667	103.3737	-5.114682
3.036333	103.4078	-5.102254
3.038000	103.4425	-5.093687
3.039667	103.4763	-5.082396
3.041333	103.5114	-5.073015
3.043000	103.5444	-5.061138
3.044667	103.5776	-5.050866
3.046333	103.6122	-5.040413
3.048000	103.6451	-5.030906
3.049667	103.6788	-5.019890
3.051333	103.7136	-5.007671
3.053000	103.7480	-4.997192
3.054667	103.7801	-4.985076
3.056333	103.8152	-4.973578
3.058000	103.8491	-4.961491
3.059667	103.8841	-4.951153
3.061334	103.9174	-4.939878
3.063000	103.9518	-4.928421
3.064667	103.9835	-4.917160
3.066333	104.0197	-4.906221
3.068000	104.0537	-4.892948
3.069667	104.0868	-4.881809
3.071333	104.1206	-4.869926
3.073000	104.1560	-4.858564
3.074667	104.1886	-4.847143
3.076333	104.2229	-4.834006
3.078000	104.2573	-4.822056
3.079666	104.2894	-4.810260
3.081333	104.3242	-4.797380
3.083000	104.3596	-4.785410
3.084667	104.3928	-4.773174
3.086333	104.4276	-4.761270
3.088000	104.4603	-4.749195
3.089666	104.4946	-4.736776
3.091333	104.5297	-4.723103
3.093000	104.5634	-4.710914
3.094667	104.5979	-4.698959
3.096333	104.6320	-4.685444
3.098000	104.6657	-4.672020
3.099667	104.6996	-4.660504
3.101333	104.7334	-4.647476
3.103000	104.7670	-4.635050
3.104667	104.8013	-4.622371
3.106333	104.8360	-4.609600
3.108000	104.8707	-4.595550
3.109667	104.9044	-4.582192
3.111334	104.9379	-4.568461
3.113000	104.9726	-4.556550
3.114667	105.0066	-4.542866
3.116333	105.0409	-4.529044
3.118000	105.0756	-4.514478
3.119667	105.1094	-4.500977
3.121333	105.1430	-4.486803
3.123000	105.1779	-4.473586
3.124667	105.2114	-4.460455
3.126333	105.2460	-4.445048
3.128000	105.2806	-4.431340
3.129666	105.3135	-4.418090
3.131333	105.3480	-4.404450
3.133000	105.3827	-4.389343
3.134667	105.4164	-4.375444
3.136333	105.4514	-4.361152
3.138000	105.4850	-4.346784
3.139666	105.5188	-4.331928
3.141333	105.5516	-4.318348
3.143000	105.5864	-4.303728
3.144667	105.6214	-4.289992
3.146334	105.6555	-4.275764
3.148000	105.6880	-4.261528
3.149667	105.7240	-4.245863
3.151333	105.7578	-4.231656
3.153000	105.7907	-4.217606
3.154667	105.8263	-4.202100
3.156334	105.8592	-4.185953
3.158000	105.8949	-4.170609
3.159667	105.9282	-4.155628
3.161333	105.9627	-4.139859
3.163000	105.9958	-4.125317
3.164667	106.0308	-4.109524
3.166333	106.0636	-4.094446
3.168000	106.0986	-4.078164
3.169667	106.1328	-4.062228
3.171333	106.1663	-4.048454
3.173000	106.2005	-4.032726
3.174667	106.2357	-4.018560
3.176333	106.2698	-4.002760
3.178000	106.3048	-3.986545
3.179667	106.3387	-3.970208
3.181333	106.3724	-3.954265
3.183000	106.4067	-3.937997
3.184667	106.4409	-3.920494
3.186334	106.4752	-3.904389
3.188000	106.5094	-3.889307
3.189667	106.5433	-3.873385
3.191333	106.5785	-3.858563
3.193000	106.6113	-3.843194
3.194667	106.6454	-3.826410
3.196333	106.6808	-3.811074
3.198000	106.7150	-3.793938
3.199667	106.7489	-3.778432
3.201333	106.7834	-3.761902
3.203000	106.8177	-3.744416
3.204666	106.8520	-3.728234
3.206334	106.8867	-3.710562
3.208000	106.9205	-3.693002
3.209667	106.9536	-3.677512
3.211334	106.9886	-3.662075
3.213000	107.0237	-3.645730
3.214667	107.0575	-3.628167
3.216333	107.0905	-3.611160
3.218000	107.1256	-3.594696
3.219667	107.1597	-3.577668
3.221333	107.1945	-3.561039
3.223000	107.2285	-3.544406
3.224667	107.2627	-3.528447
3.226333	107.2972	-3.510929
3.228000	107.3297	-3.494451
3.229667	107.3652	-3.476376
3.231333	107.3994	-3.459226
3.233000	107.4336	-3.441145
3.234666	107.4678	-3.425160
3.236334	107.5024	-3.406914
3.238000	107.5377	-3.389930
3.239667	107.5720	-3.373267
3.241333	107.6053	-3.355878
3.243000	107.6392	-3.338583
3.244667	107.6748	-3.321502
3.246333	107.7085	-3.304136
3.248000	107.7422	-3.287537
3.249667	107.7774	-3.270454
3.251333	107.8114	-3.253015
3.253000	107.8457	-3.235648
3.254666	107.8795	-3.218838
3.256333	107.9134	-3.201071
3.258000	107.9481	-3.184403
3.259667	107.9816	-3.166843
3.261333	108.0166	-3.150826
3.263000	108.0507	-3.133407
3.264667	108.0852	-3.114636
3.266333	108.1190	-3.098824
3.268000	108.1536	-3.081568
3.269667	108.1884	-3.065524
3.271333	108.2227	-3.045419
3.273000	108.2562	-3.028997
3.274667	108.2909	-3.012647
3.276333	108.3248	-2.994639
3.278000	108.3606	-2.978781
3.279666	108.3933	-2.961117
3.281334	108.4271	-2.943596
3.283000	108.4622	-2.926567
3.284667	108.4972	-2.909585
3.286334	108.5308	-2.891874
3.288000	108.5642	-2.874441
3.289667	108.6001	-2.858136
3.291333	108.6333	-2.840631
3.293000	108.6677	-2.823620
3.294667	108.7019	-2.806560
3.296333	108.7362	-2.790527
3.298000	108.7714	-2.773119
3.299667	108.8048	-2.756102
3.301334	108.8385	-2.739294
3.303000	108.8734	-2.722794
3.304667	108.9078	-2.706080
3.306333	108.9412	-2.688686
3.308000	108.9762	-2.672184
3.309666	109.0103	-2.655000
3.311334	109.0440	-2.638190
3.313000	109.0792	-2.622408
3.314667	109.1120	-2.607320
3.316333	109.1456	-2.589852
3.318000	109.1815	-2.574958
3.319667	109.2157	-2.559474
3.321333	109.2504	-2.543152
3.323000	109.2838	-2.527361
3.324667	109.3181	-2.510056
3.326333	109.3518	-2.494102
3.328000	109.3858	-2.478614
3.329666	109.4215	-2.462103
3.331334	109.4545	-2.446986
3.333000	109.4891	-2.429794
3.334667	109.5232	-2.413674
3.336334	109.5570	-2.399209
3.338000	109.5920	-2.384514
3.339667	109.6250	-2.370396
3.341333	109.6596	-2.354555
3.343000	109.6947	-2.338108
3.344667	109.7278	-2.324081
3.346333	109.7623	-2.309755
3.348000	109.7971	-2.296106
3.349667	109.8306	-2.280024
3.351333	109.8649	-2.264248
3.353000	109.8989	-2.249685
3.354667	109.9331	-2.235892
3.356333	109.9678	-2.221912
3.358000	110.0020	-2.208188
3.359666	110.0345	-2.194014
3.361334	110.0703	-2.179405
3.363000	110.1039	-2.165420
3.364667	110.1389	-2.151859
3.366333	110.1720	-2.137498
3.368000	110.2062	-2.124027
3.369667	110.2402	-2.110484
3.371333	110.2742	-2.097502
3.373000	110.3069	-2.084235
3.374667	110.3421	-2.071931
3.376333	110.3768	-2.057712
3.378000	110.4106	-2.044820
3.379666	110.4436	-2.032252
3.381333	110.4779	-2.020037
3.383000	110.5126	-2.007123
3.384667	110.5463	-1.995348
3.386333	110.5801	-1.983645
3.388000	110.6145	-1.971732
3.389667	110.6484	-1.958533
3.391333	110.6812	-1.946217
3.393000	110.7159	-1.934980
3.394667	110.7512	-1.924586
3.396333	110.7831	-1.913248
3.398000	110.8183	-1.902781
3.399667	110.8524	-1.891425
3.401333	110.8858	-1.880392
3.403000	110.9201	-1.870227
3.404666	110.9548	-1.859010
3.406334	110.9877	-1.847134
3.408000	111.0218	-1.838181
3.409667	111.0556	-1.828175
3.411334	111.0899	-1.818708
3.413000	111.1232	-1.809494
3.414667	111.1570	-1.799605
3.416333	111.1897	-1.790249
3.418000	111.2240	-1.780687
3.419667	111.2580	-1.771122
3.421333	111.2928	-1.763803
3.423000	111.3255	-1.754048
3.424667	111.3598	-1.744881
3.426334	111.3927	-1.736716
3.428000	111.4278	-1.727666
3.429667	111.4606	-1.720154
3.431333	111.4957	-1.710684
3.433000	111.5302	-1.704085
3.434666	111.5627	-1.696173
3.436334	111.5962	-1.689735
3.438000	111.6306	-1.681617
3.439667	111.6649	-1.675695
3.441333	111.6978	-1.669068
3.443000	111.7310	-1.663073
3.444667	111.7650	-1.655747
3.446333	111.7990	-1.648771
3.448000	111.8323	-1.644855
3.449667	111.8663	-1.638300
3.451333	111.8994	-1.631905
3.453000	111.9331	-1.626774
3.454666	111.9668	-1.620731
3.456334	112.0012	-1.615438
3.458000	112.0342	-1.610445
3.459667	112.0682	-1.605875
3.461334	112.1017	-1.601022
3.463000	112.1357	-1.595774
3.464667	112.1695	-1.592862
3.466333	112.2034	-1.588782
3.468000	112.2361	-1.585867
3.469667	112.2689	-1.581176
3.471333	112.3027	-1.578310
3.473000	112.3371	-1.574184
3.474667	112.3708	-1.572767
3.476333	112.4034	-1.568800
3.478000	112.4376	-1.565654
3.479667	112.4714	-1.563583
3.481333	112.5041	-1.561299
3.483000	112.5394	-1.557757
3.484666	112.5718	-1.556080
3.486334	112.6044	-1.554777
3.488000	112.6382	-1.553196
3.489667	112.6708	-1.551309
3.491333	112.7061	-1.549965
3.493000	112.7390	-1.548615
3.494667	112.7718	-1.549430
3.496333	112.8054	-1.548804
3.498000	112.8394	-1.548627
3.499667	112.8727	-1.547309
3.501333	112.9061	-1.547126
3.503000	112.9394	-1.547258
3.504666	112.9728	-1.548135
3.506333	113.0059	-1.547820
3.508000	113.0393	-1.548319
3.509667	113.0727	-1.548594
3.511333	113.1064	-1.549176
3.513000	113.1395	-1.549854
3.514667	113.1726	-1.550502
3.516333	113.2060	-1.551228
3.518000	113.2399	-1.551841
3.519667	113.2730	-1.557494
3.521333	113.3052	-1.559487
3.523000	113.3388	-1.562256
3.524667	113.3722	-1.563809
3.526333	113.4060	-1.565058
3.528000	113.4384	-1.567469
3.529666	113.4722	-1.570889
3.531334	113.5058	-1.573466
3.533000	113.5381	-1.575557
3.534667	113.5708	-1.577682
3.536334	113.6050	-1.580183
3.538000	113.6380	-1.583612
3.539667	113.6717	-1.587228
3.541333	113.7057	-1.590805
3.543000	113.7371	-1.594965
3.544667	113.7716	-1.598886
3.546333	113.8037	-1.603266
3.548000	113.8379	-1.606569
3.549667	113.8701	-1.611529
3.551334	113.9031	-1.616351
3.553000	113.9365	-1.621634
3.554667	113.9696	-1.626245
3.556333	114.0023	-1.631514
3.558000	114.0359	-1.636562
3.559666	114.0692	-1.642434
3.561334	114.1022	-1.647780
3.563000	114.1354	-1.653575
3.564667	114.1689	-1.660444
3.566333	114.2013	-1.666306
3.568000	114.2346	-1.671815
3.569667	114.2670	-1.678445
3.571333	114.3002	-1.685354
3.573000	114.3336	-1.693274
3.574667	114.3668	-1.700521
3.576333	114.3998	-1.708837
3.578000	114.4325	-1.717520
3.579666	114.4666	-1.725489
3.581334	114.4981	-1.734906
3.583000	114.5323	-1.741476
3.584667	114.5652	-1.747972
3.586334	114.5972	-1.756618
3.588000	114.6307	-1.765246
3.589667	114.6634	-1.772584
3.591333	114.6965	-1.780463
3.593000	114.7297	-1.789442
3.594667	114.7631	-1.796198
3.596333	114.7959	-1.805294
3.598000	114.8278	-1.814084
3.599667	114.8617	-1.822364
3.601333	114.8938	-1.830101
3.603000	114.9275	-1.839645
3.604667	114.9597	-1.849818
3.606333	114.9933	-1.859270
3.608000	115.0255	-1.868975
3.609666	115.0582	-1.877067
3.611334	115.0920	-1.886426
3.613000	115.1243	-1.895548
3.614667	115.1572	-1.905094
3.616333	115.1913	-1.914759
3.618000	115.2228	-1.925355
3.619667	115.2566	-1.934811
3.621333	115.2891	-1.944169
3.623000	115.3215	-1.954230
3.624667	115.3553	-1.964646
3.626333	115.3882	-1.973234
3.628000	115.4216	-1.984306
3.629666	115.4528	-1.996028
3.631333	115.4863	-2.006235
3.633000	115.5194	-2.015948
3.634667	115.5518	-2.026341
3.636333	115.5845	-2.037741
3.638000	115.6180	-2.047762
3.639667	115.6513	-2.058181
3.641333	115.6839	-2.069606
3.643000	115.7152	-2.080816
3.644667	115.7501	-2.091687
3.646333	115.7815	-2.102102
3.648000	115.8154	-2.113626
3.649667	115.8480	-2.124679
3.651333	115.8800	-2.136644
3.653000	115.9135	-2.147957
3.654666	115.9464	-2.160043
3.656334	115.9789	-2.169597
3.658000	116.0113	-2.182010
3.659667	116.0443	-2.193394
3.661334	116.0766	-2.206206
3.663000	116.1108	-2.218392
3.664667	116.1429	-2.229775
3.666333	116.1752	-2.241862
3.668000	116.2084	-2.253507
3.669667	116.2411	-2.265667
3.671333	116.2743	-2.276890
3.673000	116.3064	-2.288885
3.674667	116.3400	-2.301096
3.676334	116.3722	-2.314404
3.678000	116.4058	-2.326405
3.679667	116.4376	-2.338424
3.681333	116.4696	-2.351241
3.683000	116.5041	-2.363082
3.684666	116.5360	-2.374705
3.686334	116.5690	-2.388066
3.688000	116.6008	-2.399760
3.689667	116.6339	-2.412113
3.691333	116.6666	-2.423952
3.693000	116.6993	-2.436071
3.694667	116.7330	-2.450094
3.696333	116.7646	-2.461976
3.698000	116.7984	-2.475085
3.699667	116.8313	-2.487653
3.701333	116.8628	-2.500334
3.703000	116.8958	-2.514028
3.704666	116.9286	-2.526902
3.706334	116.9620	-2.538934
3.708000	116.9937	-2.552064
3.709667	117.0263	-2.565431
3.711334	117.0600	-2.577888
3.713000	117.0925	-2.589568
3.714667	117.1247	-2.602911
3.716333	117.1566	-2.614896
3.718000	117.1904	-2.627940
3.719667	117.2234	-2.640210
3.721333	117.2553	-2.654071
3.723000	117.2888	-2.665828
3.724667	117.3220	-2.679858
3.726333	117.3539	-2.693181
3.728000	117.3869	-2.705828
3.729667	117.4197	-2.719390
3.731333	117.4524	-2.733375
3.733000	117.4852	-2.745508
3.734666	117.5176	-2.757240
3.736334	117.5505	-2.769679
3.738000	117.5840	-2.782214
3.739667	117.6161	-2.797020
3.741333	117.6494	-2.810048
3.743000	117.6811	-2.823282
3.744667	117.7128	-2.836119
3.746333	117.7458	-2.848350
3.748000	117.7793	-2.861662
3.749667	117.8120	-2.874856
3.751333	117.8451	-2.888589
3.753000	117.8780	-2.900729
3.754666	117.9105	-2.912304
3.756333	117.9424	-2.927115
3.758000	117.9762	-2.939494
3.759667	118.0088	-2.952244
3.761333	118.0415	-2.964690
3.763000	118.0746	-2.976692
3.764667	118.1059	-2.989956
3.766333	118.1389	-3.004400
3.768000	118.1724	-3.016873
3.769667	118.2054	-3.029322
3.771333	118.2379	-3.041912
3.773000	118.2712	-3.055490
3.774667	118.3035	-3.068667
3.776333	118.3361	-3.081704
3.778000	118.3698	-3.095122
3.779666	118.4019	-3.108628
3.781334	118.4350	-3.121316
3.783000	118.4665	-3.133342
3.784667	118.4997	-3.145798
3.786334	118.5326	-3.158606
3.788000	118.5661	-3.172940
3.789667	118.5965	-3.184379
3.791333	118.6313	-3.196774
3.793000	118.6624	-3.209602
3.794667	118.6974	-3.220846
3.796333	118.7294	-3.234709
3.798000	118.7626	-3.248624
3.799667	118.7948	-3.259860
3.801334	118.8272	-3.273187
3.803000	118.8601	-3.286024
3.804667	118.8921	-3.298152
3.806333	118.9257	-3.309818
3.808000	118.9578	-3.322160
3.809666	118.9914	-3.334600
3.811334	119.0241	-3.348613
3.813000	119.0571	-3.362086
3.814667	119.0908	-3.372840
3.816333	119.1226	-3.385676
3.818000	119.1552	-3.398492
3.819667	119.1880	-3.410934
3.821333	119.2216	-3.422182
3.823000	119.2528	-3.435183
3.824667	119.2863	-3.446008
3.826333	119.3186	-3.459296
3.828000	119.3522	-3.471885
3.829666	119.3841	-3.484186
3.831334	119.4168	-3.495692
3.833000	119.4485	-3.507594
3.834667	119.4823	-3.520562
3.836334	119.5146	-3.534157
3.838000	119.5473	-3.545525
3.839667	119.5810	-3.556028
3.841333	119.6136	-3.567184
3.843000	119.6463	-3.579000
3.844666	119.6785	-3.591753
3.846333	119.7115	-3.604978
3.848000	119.7450	-3.618206
3.849667	119.7771	-3.628072
3.851333	119.8097	-3.641064
3.853000	119.8425	-3.652178
3.854667	119.8766	-3.664212
3.856333	119.9086	-3.674456
3.858000	119.9417	-3.687662
3.859667	119.9739	-3.698517
3.861334	120.0070	-3.710950
3.863000	120.0403	-3.723079
3.864666	120.0728	-3.735933
3.866333	120.1051	-3.745828
3.868000	120.1384	-3.756666
3.869667	120.1715	-3.769384
3.871333	120.2039	-3.779938
3.873000	120.2379	-3.792096
3.874667	120.2692	-3.804198
3.876333	120.3027	-3.815580
3.878000	120.3350	-3.825900
3.879667	120.3685	-3.837424
3.881333	120.4015	-3.847773
3.883000	120.4341	-3.860259
3.884666	120.4674	-3.870796
3.886334	120.4983	-3.882594
3.888000	120.5326	-3.893466
3.889667	120.5649	-3.903532
3.891333	120.5971	-3.914867
3.893000	120.6303	-3.926817
3.894667	120.6632	-3.938085
3.896333	120.6966	-3.949942
3.898000	120.7292	-3.960294
3.899667	120.7624	-3.970648
3.901333	120.7944	-3.982032
3.903000	120.8276	-3.992670
3.904667	120.8596	-4.002126
3.906334	120.8939	-4.013028
3.908000	120.9261	-4.024812
3.909666	120.9584	-4.035332
3.911334	120.9924	-4.046374
3.913000	121.0243	-4.057172
3.914667	121.0577	-4.066168
3.916333	121.0900	-4.077698
3.918000	121.1236	-4.089400
3.919667	121.1570	-4.100253
3.921333	121.1884	-4.109289
3.923000	121.2212	-4.119672
3.924667	121.2544	-4.130668
3.926334	121.2874	-4.139759
3.928000	121.3209	-4.150663
3.929666	121.3538	-4.160437
3.931334	121.3858	-4.169808
3.933000	121.4194	-4.180338
3.934666	121.4520	-4.192438
3.936333	121.4847	-4.201978
3.938000	121.5173	-4.210978
3.939667	121.5510	-4.221533
3.941333	121.5838	-4.232037
3.943000	121.6163	-4.241954
3.944667	121.6495	-4.252392
3.946333	121.6818	-4.261650
3.948000	121.7149	-4.270630
3.949667	121.7485	-4.281190
3.951334	121.7816	-4.290829
3.953000	121.8143	-4.301172
3.954666	121.8466	-4.311020
3.956333	121.8789	-4.320352
3.958000	121.9122	-4.329335
3.959667	121.9458	-4.338627
3.961334	121.9780	-4.349464
3.963000	122.0114	-4.358732
3.964667	122.0438	-4.368208
3.966333	122.0761	-4.377377
3.968000	122.1091	-4.386055
3.969666	122.1420	-4.396570
3.971333	122.1756	-4.406192
3.973000	122.2080	-4.414611
3.974667	122.2423	-4.425086
3.976333	122.2744	-4.435362
3.978000	122.3072	-4.444489
3.979667	122.3390	-4.453048
3.981333	122.3718	-4.461494
3.983000	122.4055	-4.470416
3.984667	122.4386	-4.480110
3.986334	122.4721	-4.489243
3.988000	122.5049	-4.497244
3.989666	122.5382	-4.505977
3.991333	122.5701	-4.515456
3.993000	122.6045	-4.525348
3.994667	122.6367	-4.533041
3.996333	122.6702	-4.542012
3.998000	122.7015	-4.551090
3.999667	122.7357	-4.561218
4.001333	122.7694	-4.569720
4.003000	122.8006	-4.578588
4.004667	122.8338	-4.586994
4.006333	122.8682	-4.594702
4.008000	122.9001	-4.603974
4.009666	122.9328	-4.612403
4.011334	122.9668	-4.621262
4.013000	122.9988	-4.629336
4.014667	123.0321	-4.637511
4.016333	123.0649	-4.647496
4.018000	123.0983	-4.656825
4.019667	123.1318	-4.664860
4.021333	123.1634	-4.672769
4.023000	123.1974	-4.680430
4.024667	123.2306	-4.689502
4.026333	123.2634	-4.698594
4.028000	123.2959	-4.704367
4.029667	123.3292	-4.713580
4.031334	123.3619	-4.721921
4.033000	123.3947	-4.729604
4.034666	123.4276	-4.737616
4.036334	123.4601	-4.745697
4.038000	123.4935	-4.753453
4.039667	123.5265	-4.762175
4.041333	123.5591	-4.769598
4.043000	123.5919	-4.778059
4.044667	123.6251	-4.785934
4.046333	123.6578	-4.794300
4.048000	123.6913	-4.800883
4.049667	123.7246	-4.809819
4.051334	123.7571	-4.818162
4.053000	123.7905	-4.826086
4.054666	123.8240	-4.832575
4.056334	123.8573	-4.840148
4.058000	123.8898	-4.848281
4.059666	123.9223	-4.854153
4.061333	123.9554	-4.864127
4.063000	123.9893	-4.871116
4.064667	124.0224	-4.879040
4.066333	124.0552	-4.886328
4.068000	124.0876	-4.892580
4.069667	124.1209	-4.900650
4.071333	124.1525	-4.907769
4.073000	124.1871	-4.916929
4.074667	124.2190	-4.924145
4.076334	124.2527	-4.931558
4.078000	124.2859	-4.937862
4.079666	124.3195	-4.946360
4.081333	124.3513	-4.953694
4.083000	124.3842	-4.961576
4.084667	124.4177	-4.966988
4.086334	124.4503	-4.974893
4.088000	124.4843	-4.981792
4.089667	124.5169	-4.990498
4.091333	124.5505	-4.996713
4.093000	124.5820	-5.002211
4.094666	124.6160	-5.010855
4.096334	124.6495	-5.017634
4.098000	124.6811	-5.023582
4.099667	124.7146	-5.030788
4.101334	124.7486	-5.038136
4.103000	124.7806	-5.044510
4.104667	124.8139	-5.050278
4.106333	124.8467	-5.058754
4.108000	124.8797	-5.064686
4.109667	124.9139	-5.072792
4.111334	124.9471	-5.079857
4.113000	124.9794	-5.085503
4.114666	125.0126	-5.091037
4.116334	125.0451	-5.100103
4.118000	125.0791	-5.106843
4.119667	125.1110	-5.111782
4.121334	125.1446	-5.118898
4.123000	125.1773	-5.125891
4.124667	125.2106	-5.132394
4.126334	125.2441	-5.139676
4.128000	125.2766	-5.145798
4.129667	125.3098	-5.152654
4.131333	125.3438	-5.160058
4.133000	125.3766	-5.166606
4.134666	125.4089	-5.173176
4.136334	125.4414	-5.179180
4.138000	125.4753	-5.185100
4.139667	125.5090	-5.192362
4.141333	125.5410	-5.197871
4.143000	125.5748	-5.205582
4.144667	125.6072	-5.211140
4.146334	125.6404	-5.217600
4.148000	125.6737	-5.224201
4.149667	125.7064	-5.229904
4.151334	125.7397	-5.235704
4.153000	125.7736	-5.241743
4.154667	125.8056	-5.248105
4.156334	125.8388	-5.253764
4.158000	125.8730	-5.260088
4.159666	125.9053	-5.265884
4.161334	125.9391	-5.272325
4.163000	125.9714	-5.277770
4.164667	126.0038	-5.283426
4.166333	126.0382	-5.289211
4.168000	126.0704	-5.294890
4.169667	126.1051	-5.301101
4.171334	126.1373	-5.307019
4.173000	126.1703	-5.314094
4.174667	126.2034	-5.319544
4.176334	126.2363	-5.325961
4.178000	126.2686	-5.331477
4.179666	126.3027	-5.337098
4.181334	126.3362	-5.341938
4.183000	126.3695	-5.347886
4.184666	126.4013	-5.352222
4.186333	126.4348	-5.358856
4.188000	126.4687	-5.366010
4.189667	126.5010	-5.369972
4.191334	126.5340	-5.376462
4.193000	126.5665	-5.382218
4.194667	126.6016	-5.387562
4.196334	126.6330	-5.392820
4.198000	126.6666	-5.399079
4.199667	126.7003	-5.403828
4.201334	126.7326	-5.410269
4.203000	126.7661	-5.414970
4.204666	126.7984	-5.418793
4.206333	126.8329	-5.425198
4.208000	126.8663	-5.431080
4.209667	126.8981	-5.436623
4.211334	126.9320	-5.441305
4.213000	126.9643	-5.446686
4.214667	126.9990	-5.452622
4.216334	127.0306	-5.458095
4.218000	127.0640	-5.462916
4.219666	127.0968	-5.468254
4.221334	127.1309	-5.474118
4.223000	127.1625	-5.480512
4.224667	127.1961	-5.485902
4.226334	127.2298	-5.490774
4.228000	127.2619	-5.495212
4.229667	127.2963	-5.499428
4.231333	127.3285	-5.503915
4.233000	127.3622	-5.509660
4.234667	127.3963	-5.514088
4.236334	127.4274	-5.520174
4.238000	127.4610	-5.524338
4.239666	127.4950	-5.529992
4.241334	127.5282	-5.535005
4.243000	127.5604	-5.539139
4.244667	127.5936	-5.545900
4.246334	127.6271	-5.550394
4.248000	127.6604	-5.553850
4.249667	127.6927	-5.560585
4.251334	127.7273	-5.566504
4.253000	127.7590	-5.570118
4.254667	127.7924	-5.574921
4.256333	127.8253	-5.579510
4.258000	127.8590	-5.584812
4.259666	127.8923	-5.590394
4.261334	127.9248	-5.596091
4.263000	127.9581	-5.600188
4.264667	127.9915	-5.604496
4.266333	128.0253	-5.608549
4.268000	128.0579	-5.612925
4.269667	128.0906	-5.618104
4.271334	128.1238	-5.621918
4.273000	128.1562	-5.627144
4.274667	128.1905	-5.632922
4.276334	128.2238	-5.636810
4.278000	128.2576	-5.642043
4.279667	128.2904	-5.645666
4.281334	128.3232	-5.650919
4.283000	128.3566	-5.655372
4.284666	128.3893	-5.659138
4.286334	128.4230	-5.662884
4.288000	128.4555	-5.668279
4.289667	128.4878	-5.673579
4.291333	128.5225	-5.677592
4.293000	128.5559	-5.683535
4.294667	128.5886	-5.687538
4.296334	128.6212	-5.692603
4.298000	128.6544	-5.697436
4.299667	128.6880	-5.700878
4.301334	128.7217	-5.705453
4.303000	128.7543	-5.710071
4.304666	128.7882	-5.714342
4.306334	128.8207	-5.719432
4.308000	128.8538	-5.724124
4.309666	128.8864	-5.728009
4.311333	128.9192	-5.731788
4.313000	128.9533	-5.737068
4.314667	128.9869	-5.739932
4.316334	129.0194	-5.744937
4.318000	129.0528	-5.748346
4.319667	129.0860	-5.753148
4.321334	129.1190	-5.755500
4.323000	129.1520	-5.761280
4.324667	129.1856	-5.765293
4.326334	129.2187	-5.771350
4.328000	129.2514	-5.773282
4.329666	129.2850	-5.777395
4.331333	129.3179	-5.781188
4.333000	129.3510	-5.785629
4.334667	129.3840	-5.789415
4.336334	129.4190	-5.793330
4.338000	129.4509	-5.798237
4.339667	129.4837	-5.802543
4.341334	129.5183	-5.806243
4.343000	129.5496	-5.810016
4.344666	129.5838	-5.813992
4.346334	129.6167	-5.818238
4.348000	129.6513	-5.821479
4.349667	129.6834	-5.827020
4.351334	129.7163	-5.831623
4.353000	129.7498	-5.834744
4.354667	129.7834	-5.838094
4.356333	129.8156	-5.843406
4.358000	129.8494	-5.847354
4.359667	129.8829	-5.850772
4.361334	129.9160	-5.855424
4.363000	129.9494	-5.859942
4.364666	129.9815	-5.864744
4.366334	130.0157	-5.867142
4.368000	130.0489	-5.872618
4.369667	130.0816	-5.875980
4.371334	130.1151	-5.879250
4.373000	130.1487	-5.882041
4.374667	130.1811	-5.886808
4.376334	130.2143	-5.890024
4.378000	130.2469	-5.893743
4.379667	130.2804	-5.897604
4.381333	130.3134	-5.902280
4.383000	130.3466	-5.905884
4.384666	130.3792	-5.909553
4.386334	130.4132	-5.912793
4.388000	130.4473	-5.916593
4.389667	130.4803	-5.920142
4.391333	130.5127	-5.923418
4.393000	130.5465	-5.928203
4.394667	130.5799	-5.931911
4.396334	130.6127	-5.936044
4.398000	130.6455	-5.939511
4.399667	130.6791	-5.942662
4.401334	130.7127	-5.946229
4.403000	130.7463	-5.950941
4.404667	130.7779	-5.953904
4.406334	130.8115	-5.956739
4.408000	130.8454	-5.960470
4.409666	130.8782	-5.964172
4.411334	130.9120	-5.967620
4.413000	130.9453	-5.971860
4.414667	130.9777	-5.975394
4.416333	131.0118	-5.980109
4.418000	131.0446	-5.984070
4.419667	131.0779	-5.986820
4.421334	131.1110	-5.989524
4.423000	131.1436	-5.992480
4.424667	131.1775	-5.996972
4.426334	131.2112	-6.000153
4.428000	131.2441	-6.004293
4.429666	131.2772	-6.007520
4.431334	131.3102	-6.010814
4.433000	131.3433	-6.015298
4.434666	131.3765	-6.019274
4.436333	131.4099	-6.023219
4.438000	131.4426	-6.025305
4.439667	131.4762	-6.027424
4.441334	131.5096	-6.031005
4.443000	131.5425	-6.034962
4.444667	131.5756	-6.037937
4.446334	131.6096	-6.042139
4.448000	131.6424	-6.045156
4.449667	131.6759	-6.048816
4.451334	131.7083	-6.052434
4.453000	131.7424	-6.055587
4.454666	131.7752	-6.059600
4.456333	131.8081	-6.062610
4.458000	131.8421	-6.066036
4.459667	131.8746	-6.070060
4.461334	131.9074	-6.073563
4.463000	131.9417	-6.075957
4.464667	131.9752	-6.079024
4.466334	132.0079	-6.082928
4.468000	132.0416	-6.086169
4.469666	132.0740	-6.089386
4.471334	132.1072	-6.092876
4.473000	132.1400	-6.096156
4.474667	132.1743	-6.099662
4.476334	132.2082	-6.103490
4.478000	132.2399	-6.106735
4.479667	132.2741	-6.110480
4.481333	132.3076	-6.113289
4.483000	132.3394	-6.116330
4.484667	132.3735	-6.119560
4.486334	132.4066	-6.122948
4.488000	132.4385	-6.126387
4.489666	132.4730	-6.129364
4.491334	132.5054	-6.133090
4.493000	132.5394	-6.136415
4.494667	132.5726	-6.139726
4.496334	132.6055	-6.143078
4.498000	132.6390	-6.145801
4.499667	132.6730	-6.149278
4.501334	132.7060	-6.152109
4.503000	132.7383	-6.155611
4.504667	132.7717	-6.159192
4.506333	132.8047	-6.162230
4.508000	132.8375	-6.165095
4.509666	132.8723	-6.168328
4.511334	132.9050	-6.171038
4.513000	132.9379	-6.174820
4.514667	132.9708	-6.177784
4.516333	133.0049	-6.180989
4.518000	133.0370	-6.183465
4.519667	133.0701	-6.187309
4.521334	133.1035	-6.191656
4.523000	133.1376	-6.194526
4.524667	133.1703	-6.197512
4.526334	133.2039	-6.200364
4.528000	133.2369	-6.203536
4.529667	133.2697	-6.206182
4.531334	133.3028	-6.209579
4.533000	133.3366	-6.212422
4.534666	133.3699	-6.214580
4.536334	133.4031	-6.217207
4.538000	133.4371	-6.220385
4.539667	133.4694	-6.223271
4.541333	133.5029	-6.226890
4.543000	133.5361	-6.230071
4.544667	133.5687	-6.232998
4.546334	133.6033	-6.236010
4.548000	133.6358	-6.239180
4.549667	133.6684	-6.242198
4.551334	133.7023	-6.245389
4.553000	133.7358	-6.247862
4.554666	133.7694	-6.251298
4.556334	133.8026	-6.253884
4.558000	133.8364	-6.256924
4.559666	133.8681	-6.260754
4.561333	133.9021	-6.263781
4.563000	133.9343	-6.266868
4.564667	133.9696	-6.269778
4.566334	134.0019	-6.273170
4.568000	134.0356	-6.275654
4.569667	134.0686	-6.278528
4.571334	134.1016	-6.281756
4.573000	134.1354	-6.284590
4.574667	134.1681	-6.287200
4.576334	134.2015	-6.290478
4.578000	134.2346	-6.293368
4.579666	134.2686	-6.296189
4.581333	134.3009	-6.299004
4.583000	134.3346	-6.302270
4.584667	134.3684	-6.305910
4.586334	134.4009	-6.309118
4.588000	134.4334	-6.311759
4.589667	134.4673	-6.314307
4.591334	134.5007	-6.316912
4.593000	134.5341	-6.319937
4.594666	134.5676	-6.323085
4.596334	134.6000	-6.325443
4.598000	134.6343	-6.327656
4.599667	134.6661	-6.330436
4.601334	134.6997	-6.333310
4.603000	134.7334	-6.335776
4.604667	134.7659	-6.339111
4.606333	134.8004	-6.341541
4.608000	134.8317	-6.344356
4.609667	134.8658	-6.346766
4.611334	134.8996	-6.348997
4.613000	134.9331	-6.351774
4.614666	134.9663	-6.354023
4.616334	134.9989	-6.356926
4.618000	135.0322	-6.359836
4.619667	135.0650	-6.362690
4.621334	135.1002	-6.365840
4.623000	135.1319	-6.369165
4.624667	135.1654	-6.371899
4.626334	135.1979	-6.374238
4.628000	135.2316	-6.376948
4.629667	135.2650	-6.379650
4.631333	135.2986	-6.382280
4.633000	135.3310	-6.385322
4.634666	135.3650	-6.388496
4.636334	135.3977	-6.391250
4.638000	135.4312	-6.393453
4.639667	135.4639	-6.395972
4.641333	135.4978	-6.398378
4.643000	135.5316	-6.400644
4.644667	135.5648	-6.403410
4.646334	135.5970	-6.406228
4.648000	135.6314	-6.409510
4.649667	135.6636	-6.412412
4.651334	135.6969	-6.414370
4.653000	135.7308	-6.416559
4.654667	135.7652	-6.418850
4.656334	135.7977	-6.421136
4.658000	135.8302	-6.423862
4.659666	135.8644	-6.426456
4.661334	135.8969	-6.429301
4.663000	135.9301	-6.431969
4.664667	135.9634	-6.434780
4.666333	135.9972	-6.437184
4.668000	136.0298	-6.439798
4.669667	136.0635	-6.442218
4.671334	136.0968	-6.445263
4.673000	136.1287	-6.447818
4.674667	136.1644	-6.450209
4.676334	136.1960	-6.452800
4.678000	136.2296	-6.454969
4.679666	136.2633	-6.457742
4.681334	136.2966	-6.459980
4.683000	136.3294	-6.462737
4.684666	136.3624	-6.465738
4.686333	136.3961	-6.468106
4.688000	136.4300	-6.470337
4.689667	136.4621	-6.473547
4.691334	136.4956	-6.476293
4.693000	136.5295	-6.478968
4.694667	136.5624	-6.481376
4.696334	136.5961	-6.484024
4.698000	136.6290	-6.486236
4.699667	136.6617	-6.488840
4.701334	136.6954	-6.491279
4.703000	136.7281	-6.493409
4.704666	136.7624	-6.495580
4.706333	136.7949	-6.497856
4.708000	136.8284	-6.500062
4.709667	136.8615	-6.502713
4.711334	136.8944	-6.504986
4.713000	136.9286	-6.507098
4.714667	136.9622	-6.510006
4.716334	136.9954	-6.512639
4.718000	137.0280	-6.514912
4.719666	137.0619	-6.518033
4.721334	137.0948	-6.520901
4.723000	137.1280	-6.523191
4.724667	137.1610	-6.525848
4.726334	137.1947	-6.527832
4.728000	137.2272	-6.530064
4.729667	137.2608	-6.532344
4.731333	137.2937	-6.534756
4.733000	137.3276	-6.537609
4.734667	137.3609	-6.540352
4.736334	137.3941	-6.542890
4.738000	137.4278	-6.545879
4.739666	137.4603	-6.548941
4.741334	137.4942	-6.551326
4.743000	137.5272	-6.553907
4.744667	137.5602	-6.556415
4.746334	137.5939	-6.558642
4.748000	137.6262	-6.560898
4.749667	137.6597	-6.563394
4.751334	137.6933	-6.565480
4.753000	137.7267	-6.567992
4.754667	137.7605	-6.570196
4.756333	137.7929	-6.571954
4.758000	137.8270	-6.573730
4.759666	137.8604	-6.576282
4.761334	137.8933	-6.578482
4.763000	137.9261	-6.580556
4.764667	137.9592	-6.583044
4.766333	137.9934	-6.584947
4.768000	138.0256	-6.587447
4.769667	138.0604	-6.590390
4.771334	138.0927	-6.593090
4.773000	138.1258	-6.596076
4.774667	138.1596	-6.598340
4.776334	138.1921	-6.600770
4.778000	138.2261	-6.603497
4.779667	138.2596	-6.605762
4.781334	138.2927	-6.608466
4.783000	138.3249	-6.610970
4.784666	138.3584	-6.613376
4.786334	138.3921	-6.615624
4.788000	138.4254	-6.618018
4.789667	138.4594	-6.620522
4.791333	138.4915	-6.623220
4.793000	138.5259	-6.625809
4.794667	138.5585	-6.628288
4.796334	138.5914	-6.630902
4.798000	138.6248	-6.633212
4.799667	138.6582	-6.635741
4.801334	138.6915	-6.638099
4.803000	138.7242	-6.640464
4.804666	138.7587	-6.642918
4.806334	138.7908	-6.645284
4.808000	138.8247	-6.647372
4.809666	138.8577	-6.649075
4.811333	138.8918	-6.651545
4.813000	138.9234	-6.653924
4.814667	138.9578	-6.656494
4.816334	138.9906	-6.658743
4.818000	139.0231	-6.661022
4.819667	139.0577	-6.663254
4.821334	139.0904	-6.665634
4.823000	139.1248	-6.667652
4.824667	139.1582	-6.670337
4.826334	139.1916	-6.673051
4.828000	139.2242	-6.675280
4.829666	139.2571	-6.677711
4.831333	139.2895	-6.680004
4.833000	139.3238	-6.682294
4.834667	139.3567	-6.684659
4.836334	139.3898	-6.686708
4.838000	139.4226	-6.689038
4.839667	139.4570	-6.691503
4.841334	139.4894	-6.694190
4.843000	139.5233	-6.697328
4.844666	139.5567	-6.699770
4.846334	139.5892	-6.702180
4.848000	139.6220	-6.704413
4.849667	139.6551	-6.706910
4.851334	139.6889	-6.708999
4.853000	139.7222	-6.711205
4.854667	139.7552	-6.714293
4.856333	139.7889	-6.717066
4.858000	139.8222	-6.719388
4.859667	139.8552	-6.722174
4.861334	139.8889	-6.724505
4.863000	139.9221	-6.726987
4.864666	139.9545	-6.729138
4.866334	139.9886	-6.731731
4.868000	140.0222	-6.733809
4.869667	140.0552	-6.735932
4.871334	140.0889	-6.738190
4.873000	140.1214	-6.740449
4.874667	140.1542	-6.743255
4.876334	140.1888	-6.745830
4.878000	140.2215	-6.747966
4.879667	140.2550	-6.749986
4.881333	140.2879	-6.752691
4.883000	140.3218	-6.755251
4.884666	140.3550	-6.757610
4.886334	140.3887	-6.760297
4.888000	140.4216	-6.762876
4.889667	140.4546	-6.765530
4.891333	140.4877	-6.767934
4.893000	140.5209	-6.770120
4.894667	140.5542	-6.772801
4.896334	140.5878	-6.775312
4.898000	140.6206	-6.778087
4.899667	140.6540	-6.780568
4.901334	140.6870	-6.783070
4.903000	140.7210	-6.785801
4.904667	140.7540	-6.788153
4.906334	140.7873	-6.790124
4.908000	140.8210	-6.792542
4.909666	140.8536	-6.794970
4.911334	140.8881	-6.797282
4.913000	140.9204	-6.799566
4.914667	140.9535	-6.802418
4.916333	140.9867	-6.804890
4.918000	141.0204	-6.807610
4.919667	141.0537	-6.810451
4.921334	141.0872	-6.813382
4.923000	141.1204	-6.816100
4.924667	141.1532	-6.818736
4.926334	141.1864	-6.820910
4.928000	141.2196	-6.823111
4.929666	141.2534	-6.825611
4.931334	141.2854	-6.827881
4.933000	141.3193	-6.830432
4.934666	141.3529	-6.832984
4.936333	141.3864	-6.835320
4.938000	141.4193	-6.837646
4.939667	141.4533	-6.839874
4.941334	141.4859	-6.842397
4.943000	141.5192	-6.844707
4.944667	141.5526	-6.847415
4.946334	141.5856	-6.850118
4.948000	141.6190	-6.852805
4.949667	141.6525	-6.855151
4.951334	141.6853	-6.857675
4.953000	141.7180	-6.860034
4.954666	141.7512	-6.862457
4.956333	141.7854	-6.864959
4.958000	141.8192	-6.867149
4.959667	141.8518	-6.869765
4.961334	141.8851	-6.872226
4.963000	141.9183	-6.875082
4.964667	141.9518	-6.877530
4.966334	141.9842	-6.880681
4.968000	142.0181	-6.883316
4.969666	142.0509	-6.886124
4.971334	142.0851	-6.888422
4.973000	142.1167	-6.890415
4.974667	142.1503	-6.893061
4.976334	142.1838	-6.895360
4.978000	142.2180	-6.897851
4.979667	142.2505	-6.900634
4.981333	142.2838	-6.903231
4.983000	142.3168	-6.906372
4.984667	142.3508	-6.909011
4.986334	142.3852	-6.911445
4.988000	142.4174	-6.913828
4.989666	142.4497	-6.916226
4.991334	142.4837	-6.918859
4.993000	142.5170	-6.922100
4.994667	142.5509	-6.925251
4.996334	142.5837	-6.928118
4.998000	142.6166	-6.930591
4.999667	142.6501	-6.932942
5.001334	142.6830	-6.935244
5.003000	142.7171	-6.938054
5.004667	142.7504	-6.940974
5.006333	142.7830	-6.943726
5.008000	142.8161	-6.946300
5.009666	142.8498	-6.949187
5.011334	142.8848	-6.951772
5.013000	142.9163	-6.954945
5.014667	142.9502	-6.957595
5.016333	142.9822	-6.959995
5.018000	143.0150	-6.962394
5.019667	143.0497	-6.965232
5.021334	143.0824	-6.968160
5.023000	143.1158	-6.971116
5.024667	143.1486	-6.974260
5.026334	143.1829	-6.977624
5.028000	143.2164	-6.980450
5.029667	143.2488	-6.982780
5.031334	143.2822	-6.985595
5.033000	143.3158	-6.987868
5.034666	143.3491	-6.990838
5.036334	143.3810	-6.993450
5.038000	143.4153	-6.996040
5.039667	143.4490	-6.999436
5.041333	143.4821	-7.002234
5.043000	143.5156	-7.004950
5.044667	143.5474	-7.007239
5.046334	143.5808	-7.010058
5.048000	143.6154	-7.013222
5.049667	143.6471	-7.015882
5.051334	143.6818	-7.018564
5.053000	143.7141	-7.021296
5.054666	143.7479	-7.024194
5.056334	143.7801	-7.026887
5.058000	143.8135	-7.029681
5.059666	143.8472	-7.032545
5.061333	143.8806	-7.035334
5.063000	143.9133	-7.038320
5.064667	143.9462	-7.040951
5.066334	143.9804	-7.043879
5.068000	144.0133	-7.046515
5.069667	144.0465	-7.049597
5.071334	144.0802	-7.052234
5.073000	144.1126	-7.054988
5.074667	144.1460	-7.057538
5.076334	144.1795	-7.060462
5.078000	144.2126	-7.063640
5.079666	144.2455	-7.066845
5.081333	144.2792	-7.069720
5.083000	144.3129	-7.072688
5.084667	144.3465	-7.075513
5.086334	144.3789	-7.078400
5.088000	144.4124	-7.081011
5.089667	144.4462	-7.084210
5.091334	144.4791	-7.087140
5.093000	144.5120	-7.090172
5.094666	144.5449	-7.093168
5.096334	144.5779	-7.096589
5.098000	144.6110	-7.100082
5.099667	144.6451	-7.102851
5.101334	144.6787	-7.106063
5.103000	144.7119	-7.108948
5.104667	144.7449	-7.111742
5.106333	144.7782	-7.114538
5.108000	144.8115	-7.117682
5.109667	144.8447	-7.120965
5.111334	144.8781	-7.124208
5.113000	144.9112	-7.126907
5.114666	144.9442	-7.129816
5.116334	144.9779	-7.132989
5.118000	145.0106	-7.136544
5.119667	145.0444	-7.140262
5.121333	145.0776	-7.142419
5.123000	145.1108	-7.145244
5.124667	145.1439	-7.148772
5.126333	145.1768	-7.151852
5.128000	145.2109	-7.154730
5.129667	145.2446	-7.158222
5.131333	145.2769	-7.160986
5.133000	145.3098	-7.163838
5.134667	145.3448	-7.166681
5.136334	145.3769	-7.169812
5.138000	145.4096	-7.172651
5.139667	145.4428	-7.175919
5.141333	145.4766	-7.178852
5.143000	145.5097	-7.182178
5.144667	145.5434	-7.185575
5.146333	145.5768	-7.188510
5.148000	145.6092	-7.192672
5.149667	145.6425	-7.196062
5.151333	145.6760	-7.199622
5.153000	145.7104	-7.202828
5.154667	145.7414	-7.206474
5.156334	145.7762	-7.209694
5.158000	145.8085	-7.213030
5.159667	145.8425	-7.216066
5.161334	145.8746	-7.219488
5.163000	145.9085	-7.223200
5.164667	145.9422	-7.226820
5.166333	145.9749	-7.229811
5.168000	146.0086	-7.232618
5.169667	146.0408	-7.236666
5.171333	146.0744	-7.239975
5.173000	146.1073	-7.243441
5.174667	146.1398	-7.247406
5.176334	146.1731	-7.250569
5.178000	146.2068	-7.253400
5.179667	146.2398	-7.256916
5.181334	146.2736	-7.260465
5.183000	146.3060	-7.264139
5.184667	146.3398	-7.266791
5.186333	146.3729	-7.270356
5.188000	146.4070	-7.274252
5.189667	146.4394	-7.278582
5.191334	146.4731	-7.281631
5.193000	146.5059	-7.285168
5.194667	146.5401	-7.288484
5.196333	146.5727	-7.291835
5.198000	146.6056	-7.295142
5.199667	146.6399	-7.299215
5.201334	146.6719	-7.303364
5.203000	146.7052	-7.306762
5.204667	146.7387	-7.310315
5.206333	146.7724	-7.313882
5.208000	146.8046	-7.317011
5.209667	146.8385	-7.319680
5.211334	146.8720	-7.323470
5.213000	146.9049	-7.327148
5.214667	146.9380	-7.330708
5.216334	146.9713	-7.334808
5.218000	147.0051	-7.338840
5.219666	147.0380	-7.342706
5.221333	147.0715	-7.346821
5.223000	147.1039	-7.350778
5.224667	147.1372	-7.354181
5.226333	147.1710	-7.357930
5.228000	147.2037	-7.361402
5.229667	147.2380	-7.365616
5.231333	147.2702	-7.369155
5.233000	147.3024	-7.373155
5.234667	147.3369	-7.377501
5.236334	147.3695	-7.381040
5.238000	147.4024	-7.384090
5.239666	147.4365	-7.388860
5.241334	147.4694	-7.392524
5.243000	147.5030	-7.396662
5.244668	147.5358	-7.400102
5.246332	147.5685	-7.403614
5.248000	147.6035	-7.407999
5.249668	147.6353	-7.412461
5.251332	147.6684	-7.416558
5.253000	147.7017	-7.421100
5.254668	147.7347	-7.426072
5.256332	147.7683	-7.430024
5.258000	147.8009	-7.433461
5.259668	147.8346	-7.437593
5.261334	147.8673	-7.442210
5.263000	147.9016	-7.446392
5.264668	147.9337	-7.449116
5.266332	147.9678	-7.453754
5.268000	148.0002	-7.458932
5.269668	148.0331	-7.463153
5.271332	148.0662	-7.466828
5.273000	148.0995	-7.472000
5.274668	148.1328	-7.476428
5.276332	148.1657	-7.480118
5.278000	148.1991	-7.484561
5.279668	148.2324	-7.488750
5.281334	148.2656	-7.492968
5.283000	148.2972	-7.497908
5.284668	148.3323	-7.501422
5.286334	148.3659	-7.504616
5.288000	148.3975	-7.508996
5.289668	148.4308	-7.512903
5.291332	148.4660	-7.518790
5.293000	148.4980	-7.522830
5.294668	148.5316	-7.526700
5.296332	148.5638	-7.531960
5.298000	148.5973	-7.536656
5.299668	148.6302	-7.540668
5.301334	148.6637	-7.546319
5.303000	148.6964	-7.550168
5.304668	148.7296	-7.555261
5.306334	148.7629	-7.559706
5.308000	148.7961	-7.564150
5.309668	148.8290	-7.570466
5.311332	148.8620	-7.575756
5.313000	148.8966	-7.579476
5.314668	148.9296	-7.582370
5.316334	148.9617	-7.588193
5.318000	148.9957	-7.594282
5.319668	149.0280	-7.599341
5.321332	149.0618	-7.605402
5.323000	149.0956	-7.609192
5.324668	149.1287	-7.613762
5.326334	149.1614	-7.619812
5.328000	149.1944	-7.624410
5.329668	149.2272	-7.629856
5.331332	149.2604	-7.633452
5.333000	149.2944	-7.638474
5.334668	149.3270	-7.643103
5.336334	149.3598	-7.649962
5.338000	149.3929	-7.655276
5.339668	149.4264	-7.659970
5.341334	149.4597	-7.665551
5.343000	149.4920	-7.671245
5.344666	149.5255	-7.676635
5.346332	149.5588	-7.680537
5.348000	149.5916	-7.686114
5.349668	149.6252	-7.691243
5.351332	149.6582	-7.698672
5.353000	149.6898	-7.703593
5.354668	149.7244	-7.709378
5.356332	149.7580	-7.713666
5.358000	149.7904	-7.720562
5.359668	149.8227	-7.725731
5.361334	149.8572	-7.731972
5.363000	149.8905	-7.737293
5.364666	149.9233	-7.742610
5.366334	149.9565	-7.748819
5.368000	149.9894	-7.755121
5.369668	150.0226	-7.760779
5.371332	150.0552	-7.765686
5.373000	150.0881	-7.772229
5.374668	150.1214	-7.778680
5.376332	150.1538	-7.785437
5.378000	150.1876	-7.791918
5.379668	150.2207	-7.798056
5.381332	150.2544	-7.802447
5.383000	150.2876	-7.808635
5.384668	150.3204	-7.816262
5.386334	150.3535	-7.822256
5.388000	150.3867	-7.827750
5.389668	150.4187	-7.834939
5.391332	150.4525	-7.839837
5.393000	150.4856	-7.846362
5.394668	150.5186	-7.852431
5.396332	150.5524	-7.858938
5.398000	150.5848	-7.863707
5.399668	150.6173	-7.872006
5.401332	150.6514	-7.878855
5.403000	150.6839	-7.886820
5.404668	150.7181	-7.893381
5.406334	150.7502	-7.900214
5.408000	150.7833	-7.907680
5.409668	150.8161	-7.914639
5.411334	150.8500	-7.920599
5.413000	150.8823	-7.927675
5.414668	150.9160	-7.934114
5.416332	150.9488	-7.941749
5.418000	150.9814	-7.948637
5.419668	151.0143	-7.956849
5.421332	151.0471	-7.963812
5.423000	151.0807	-7.969819
5.424668	151.1142	-7.978494
5.426334	151.1470	-7.985772
5.428000	151.1804	-7.992931
5.429668	151.2134	-8.001460
5.431334	151.2452	-8.008513
5.433000	151.2785	-8.016587
5.434668	151.3104	-8.023882
5.436332	151.3441	-8.032105
5.438000	151.3778	-8.039391
5.439668	151.4098	-8.047553
5.441334	151.4433	-8.055320
5.443000	151.4771	-8.062753
5.444668	151.5096	-8.070776
5.446332	151.5422	-8.078920
5.448000	151.5749	-8.085288
5.449668	151.6085	-8.093824
5.451334	151.6425	-8.102656
5.453000	151.6749	-8.111232
5.454668	151.7084	-8.118618
5.456332	151.7406	-8.126256
5.458000	151.7735	-8.135920
5.459668	151.8072	-8.144415
5.461334	151.8396	-8.153186
5.463000	151.8731	-8.161007
5.464668	151.9054	-8.170284
5.466334	151.9388	-8.178200
5.468000	151.9726	-8.187515
5.469666	152.0050	-8.195304
5.471332	152.0378	-8.204636
5.473000	152.0704	-8.212765
5.474668	152.1036	-8.222847
5.476332	152.1360	-8.231431
5.478000	152.1692	-8.240095
5.479668	152.2033	-8.248719
5.481332	152.2358	-8.257547
5.483000	152.2694	-8.267778
5.484668	152.3014	-8.275858
5.486334	152.3350	-8.285561
5.488000	152.3665	-8.294406
5.489666	152.4004	-8.303538
5.491334	152.4331	-8.313500
5.493000	152.4663	-8.322265
5.494668	152.4994	-8.332543
5.496332	152.5321	-8.341931
5.498000	152.5650	-8.349708
5.499668	152.5983	-8.359991
5.501332	152.6309	-8.369668
5.503000	152.6630	-8.379532
5.504668	152.6966	-8.389026
5.506332	152.7297	-8.398780
5.508000	152.7615	-8.407059
5.509668	152.7954	-8.417901
5.511334	152.8283	-8.426499
5.513000	152.8613	-8.437098
5.514668	152.8935	-8.447137
5.516332	152.9257	-8.458041
5.518000	152.9600	-8.468939
5.519668	152.9943	-8.477095
5.521332	153.0264	-8.487450
5.523000	153.0590	-8.497516
5.524668	153.0909	-8.509218
5.526332	153.1244	-8.519366
5.528000	153.1577	-8.527587
5.529668	153.1900	-8.537414
5.531334	153.2233	-8.549563
5.533000	153.2553	-8.559822
5.534668	153.2890	-8.569616
5.536334	153.3230	-8.579581
5.538000	153.3550	-8.590178
5.539668	153.3873	-8.600322
5.541332	153.4208	-8.610934
5.543000	153.4546	-8.619165
5.544668	153.4870	-8.631574
5.546332	153.5190	-8.641742
5.548000	153.5528	-8.652578
5.549668	153.5858	-8.663550
5.551334	153.6189	-8.674691
5.553000	153.6513	-8.683324
5.554668	153.6848	-8.695144
5.556334	153.7159	-8.704925
5.558000	153.7498	-8.715618
5.559668	153.7828	-8.726906
5.561332	153.8156	-8.738003
5.563000	153.8478	-8.750009
5.564668	153.8808	-8.760022
5.566334	153.9138	-8.771531
5.568000	153.9477	-8.781459
5.569668	153.9792	-8.793750
5.571332	154.0126	-8.803962
5.573000	154.0458	-8.814125
5.574668	154.0784	-8.825705
5.576334	154.1104	-8.836847
5.578000	154.1438	-8.848606
5.579668	154.1767	-8.859538
5.581332	154.2100	-8.870187
5.583000	154.2426	-8.882082
5.584668	154.2755	-8.891259
5.586334	154.3074	-8.902960
5.588000	154.3410	-8.914530
5.589668	154.3734	-8.926355
5.591334	154.4064	-8.935800
5.593000	154.4393	-8.947219
5.594666	154.4732	-8.958625
5.596332	154.5060	-8.971350
5.598000	154.5385	-8.981611
5.599668	154.5707	-8.993195
5.601332	154.6048	-9.003259
5.603000	154.6362	-9.014887
5.604668	154.6705	-9.026856
5.606332	154.7020	-9.037353
5.608000	154.7362	-9.050118
5.609668	154.7683	-9.061151
5.611334	154.8023	-9.072687
5.613000	154.8336	-9.084632
5.614666	154.8668	-9.094788
5.616334	154.9012	-9.107074
5.618000	154.9332	-9.118618
5.619668	154.9661	-9.129326
5.621332	154.9985	-9.140561
5.623000	155.0306	-9.152589
5.624668	155.0638	-9.163641
5.626332	155.0973	-9.174719
5.628000	155.1297	-9.185788
5.629668	155.1629	-9.198166
5.631332	155.1954	-9.210082
5.633000	155.2287	-9.221161
5.634668	155.2621	-9.232361
5.636334	155.2944	-9.244493
5.638000	155.3257	-9.257003
5.639668	155.3600	-9.268191
5.641332	155.3922	-9.279889
5.643000	155.4242	-9.290912
5.644668	155.4584	-9.301619
5.646332	155.4907	-9.314163
5.648000	155.5240	-9.326478
5.649668	155.5566	-9.336616
5.651332	155.5884	-9.348194
5.653000	155.6217	-9.360175
5.654668	155.6545	-9.371594
5.656334	155.6878	-9.382297
5.658000	155.7212	-9.394303
5.659668	155.7540	-9.405484
5.661334	155.7865	-9.417241
5.663000	155.8202	-9.428576
5.664668	155.8527	-9.439468
5.666332	155.8852	-9.452457
5.668000	155.9180	-9.463184
5.669668	155.9514	-9.475409
5.671332	155.9839	-9.486449
5.673000	156.0161	-9.497413
5.674668	156.0488	-9.507970
5.676334	156.0823	-9.520371
5.678000	156.1156	-9.532024
5.679668	156.1485	-9.544372
5.681334	156.1805	-9.554566
5.683000	156.2138	-9.567837
5.684668	156.2468	-9.579464
5.686332	156.2791	-9.589975
5.688000	156.3124	-9.601750
5.689668	156.3442	-9.614071
5.691334	156.3781	-9.624816
5.693000	156.4106	-9.636825
5.694668	156.4439	-9.648488
5.696332	156.4774	-9.659449
5.698000	156.5097	-9.671608
5.699668	156.5430	-9.683484
5.701334	156.5744	-9.695295
5.703000	156.6085	-9.706170
5.704668	156.6409	-9.719055
5.706332	156.6733	-9.730539
5.708000	156.7058	-9.741955
5.709668	156.7394	-9.752220
5.711334	156.7723	-9.763351
5.713000	156.8048	-9.775278
5.714668	156.8374	-9.786816
5.716334	156.8702	-9.797849
5.718000	156.9039	-9.809570
5.719666	156.9360	-9.821881
5.721332	156.9691	-9.833499
5.723000	157.0034	-9.845709
5.724668	157.0345	-9.856270
5.726332	157.0673	-9.868734
5.728000	157.0996	-9.879648
5.729668	157.1333	-9.890214
5.731332	157.1654	-9.902019
5.733000	157.1991	-9.914181
5.734668	157.2316	-9.925194
5.736334	157.2646	-9.936892
5.738000	157.2972	-9.948296
5.739666	157.3314	-9.961647
5.741334	157.3627	-9.973136
5.743000	157.3964	-9.983682
5.744668	157.4278	-9.996913
5.746332	157.4620	-10.00746
5.748000	157.4955	-10.02009
5.749668	157.5269	-10.03197
5.751332	157.5605	-10.04419
5.753000	157.5934	-10.05502
5.754668	157.6276	-10.06642
5.756332	157.6594	-10.07949
5.758000	157.6916	-10.09085
5.759668	157.7238	-10.10368
5.761334	157.7562	-10.11577
5.763000	157.7893	-10.12593
5.764668	157.8223	-10.13832
5.766332	157.8564	-10.14982
5.768000	157.8889	-10.16225
5.769668	157.9219	-10.17435
5.771332	157.9544	-10.18507
5.773000	157.9866	-10.19749
5.774668	158.0206	-10.20820
5.776332	158.0520	-10.21992
5.778000	158.0850	-10.23234
5.779668	158.1184	-10.24367
5.781334	158.1510	-10.25666
5.783000	158.1836	-10.26878
5.784668	158.2156	-10.28129
5.786334	158.2502	-10.29462
5.788000	158.2818	-10.30489
5.789668	158.3147	-10.31635
5.791332	158.3475	-10.32915
5.793000	158.3809	-10.34223
5.794668	158.4130	-10.35476
5.796332	158.4456	-10.36641
5.798000	158.4795	-10.37819
5.799668	158.5114	-10.39072
5.801334	158.5442	-10.40314
5.803000	158.5775	-10.41630
5.804668	158.6108	-10.42752
5.806334	158.6432	-10.44006
5.808000	158.6760	-10.45246
5.809668	158.7086	-10.46351
5.811332	158.7418	-10.47782
5.813000	158.7750	-10.48996
5.814668	158.8071	-10.50207
5.816334	158.8408	-10.51485
5.818000	158.8730	-10.52715
5.819668	158.9066	-10.54000
5.821332	158.9393	-10.55103
5.823000	158.9717	-10.56341
5.824668	159.0043	-10.57676
5.826334	159.0373	-10.59038
5.828000	159.0700	-10.60238
5.829668	159.1029	-10.61516
5.831332	159.1362	-10.62922
5.833000	159.1681	-10.63915
5.834668	159.2013	-10.65246
5.836334	159.2341	-10.66611
5.838000	159.2671	-10.67945
5.839668	159.2991	-10.69084
5.841334	159.3324	-10.70353
5.843000	159.3649	-10.71657
5.844666	159.3978	-10.72996
5.846332	159.4310	-10.74270
5.848000	159.4641	-10.75616
5.849668	159.4964	-10.76886
5.851332	159.5273	-10.78218
5.853000	159.5623	-10.79652
5.854668	159.5944	-10.80946
5.856332	159.6275	-10.82351
5.858000	159.6603	-10.83586
5.859668	159.6921	-10.85084
5.861334	159.7249	-10.86198
5.863000	159.7582	-10.87584
5.864666	159.7909	-10.89076
5.866334	159.8234	-10.90292
5.868000	159.8563	-10.91769
5.869668	159.8903	-10.93248
5.871332	159.9216	-10.94511
5.873000	159.9537	-10.95790
5.874668	159.9868	-10.97035
5.876332	160.0205	-10.98568
5.878000	160.0523	-10.99989
5.879668	160.0855	-11.01371
5.881332	160.1188	-11.02714
5.883000	160.1504	-11.04152
5.884668	160.1842	-11.05518
5.886334	160.2168	-11.06865
5.888000	160.2487	-11.08275
5.889668	160.2818	-11.09742
5.891332	160.3140	-11.10910
5.893000	160.3480	-11.12385
5.894668	160.3800	-11.13832
5.896332	160.4130	-11.15226
5.898000	160.4461	-11.16577
5.899668	160.4783	-11.17903
5.901332	160.5108	-11.19341
5.903000	160.5436	-11.20936
5.904668	160.5758	-11.22260
5.906334	160.6100	-11.23686
5.908000	160.6417	-11.25181
5.909668	160.6745	-11.26612
5.911334	160.7075	-11.28119
5.913000	160.7405	-11.29393
5.914668	160.7730	-11.30734
5.916332	160.8053	-11.32306
5.918000	160.8392	-11.33564
5.919668	160.8716	-11.34959
5.921332	160.9045	-11.36386
5.923000	160.9367	-11.37810
5.924668	160.9702	-11.39296
5.926334	161.0012	-11.40632
5.928000	161.0344	-11.42055
5.929668	161.0674	-11.43458
5.931334	161.1007	-11.44855
5.933000	161.1326	-11.46356
5.934668	161.1658	-11.47593
5.936332	161.1985	-11.49120
5.938000	161.2307	-11.50566
5.939668	161.2641	-11.51804
5.941334	161.2968	-11.53261
5.943000	161.3294	-11.54703
5.944668	161.3621	-11.56041
5.946332	161.3938	-11.57427
5.948000	161.4276	-11.58701
5.949668	161.4601	-11.59999
5.951334	161.4938	-11.61438
5.953000	161.5256	-11.62831
5.954668	161.5589	-11.64084
5.956332	161.5914	-11.65466
5.958000	161.6245	-11.66822
5.959668	161.6568	-11.68069
5.961334	161.6902	-11.69307
5.963000	161.7226	-11.70663
5.964668	161.7556	-11.72092
5.966334	161.7879	-11.73298
5.968000	161.8207	-11.74574
5.969666	161.8538	-11.75917
5.971332	161.8872	-11.77088
5.973000	161.9196	-11.78478
5.974668	161.9518	-11.79827
5.976332	161.9841	-11.81043
5.978000	162.0167	-11.82320
5.979668	162.0508	-11.83567
5.981332	162.0828	-11.84734
5.983000	162.1152	-11.86086
5.984668	162.1476	-11.87409
5.986334	162.1806	-11.88592
5.988000	162.2137	-11.89916
5.989666	162.2471	-11.91262
5.991334	162.2799	-11.92506
5.993000	162.3123	-11.93599
5.994668	162.3463	-11.94970
5.996332	162.3780	-11.96082
5.998000	162.4110	-11.97292
5.999668	162.4442	-11.98447
6.001332	162.4766	-11.99630
6.003000	162.5095	-12.00894
6.004668	162.5428	-12.02209
6.006332	162.5759	-12.03267
6.008000	162.6076	-12.04592
6.009668	162.6418	-12.05635
6.011334	162.6738	-12.06937
6.013000	162.7070	-12.08085
6.014668	162.7395	-12.09298
6.016332	162.7715	-12.10401
6.018000	162.8051	-12.11659
6.019668	162.8375	-12.12673
6.021332	162.8699	-12.13928
6.023000	162.9030	-12.14884
6.024668	162.9372	-12.16129
6.026332	162.9692	-12.17373
6.028000	163.0022	-12.18485
6.029668	163.0352	-12.19673
6.031334	163.0687	-12.20667
6.033000	163.1018	-12.21859
6.034668	163.1340	-12.22949
6.036334	163.1681	-12.24160
6.038000	163.1999	-12.25184
6.039668	163.2327	-12.26143
6.041332	163.2657	-12.27346
6.043000	163.2984	-12.28422
6.044668	163.3319	-12.29460
6.046332	163.3637	-12.30562
6.048000	163.3964	-12.31754
6.049668	163.4299	-12.32774
6.051334	163.4623	-12.33930
6.053000	163.4956	-12.34851
6.054668	163.5288	-12.35924
6.056334	163.5622	-12.36885
6.058000	163.5937	-12.38086
6.059668	163.6274	-12.38999
6.061332	163.6591	-12.39832
6.063000	163.6932	-12.40930
6.064668	163.7268	-12.41843
6.066334	163.7594	-12.42953
6.068000	163.7914	-12.43837
6.069668	163.8252	-12.44788
6.071332	163.8581	-12.45763
6.073000	163.8904	-12.46752
6.074668	163.9229	-12.47681
6.076334	163.9567	-12.48662
6.078000	163.9908	-12.49569
6.079668	164.0220	-12.50348
6.081332	164.0548	-12.51292
6.083000	164.0887	-12.52199
6.084668	164.1221	-12.53124
6.086334	164.1552	-12.53957
6.088000	164.1876	-12.54862
6.089668	164.2204	-12.55802
6.091334	164.2544	-12.56641
6.093000	164.2867	-12.57498
6.094666	164.3196	-12.58318
6.096332	164.3530	-12.59060
6.098000	164.3869	-12.59836
6.099668	164.4185	-12.60747
6.101332	164.4510	-12.61488
6.103000	164.4851	-12.62332
6.104668	164.5186	-12.63086
6.106332	164.5503	-12.63733
6.108000	164.5839	-12.64327
6.109668	164.6163	-12.65080
6.111334	164.6498	-12.65770
6.113000	164.6841	-12.66416
6.114666	164.7166	-12.67133
6.116334	164.7493	-12.67757
6.118000	164.7812	-12.68432
6.119668	164.8160	-12.69141
6.121332	164.8488	-12.69630
6.123000	164.8823	-12.70367
6.124668	164.9154	-12.70961
6.126332	164.9481	-12.71394
6.128000	164.9812	-12.72140
6.129668	165.0141	-12.72748
6.131332	165.0480	-12.73287
6.133000	165.0802	-12.73828
6.134668	165.1136	-12.74106
6.136334	165.1468	-12.74664
6.138000	165.1809	-12.75113
6.139668	165.2139	-12.75542
6.141332	165.2470	-12.75963
6.143000	165.2806	-12.76509
6.144668	165.3130	-12.76881
6.146332	165.3466	-12.77259
6.148000	165.3799	-12.77625
6.149668	165.4122	-12.77982
6.151332	165.4469	-12.78306
6.153000	165.4796	-12.78586
6.154668	165.5123	-12.78964
6.156334	165.5452	-12.79125
6.158000	165.5798	-12.79434
6.159668	165.6127	-12.79540
6.161334	165.6453	-12.79888
6.163000	165.6786	-12.80059
6.164668	165.7120	-12.80131
6.166332	165.7460	-12.80427
6.168000	165.7789	-12.80501
6.169668	165.8122	-12.80594
6.171332	165.8449	-12.80617
6.173000	165.8795	-12.80668
6.174668	165.9130	-12.80759
6.176334	165.9461	-12.80789
6.178000	165.9795	-12.80844
6.179668	166.0120	-12.80823
6.181334	166.0451	-12.80759
6.183000	166.0787	-12.80751
6.184668	166.1126	-12.80709
6.186332	166.1464	-12.80664
6.188000	166.1805	-12.80566
6.189668	166.2133	-12.80472
6.191334	166.2461	-12.80387
6.193000	166.2808	-12.79782
6.194668	166.3141	-12.79570
6.196332	166.3468	-12.79329
6.198000	166.3818	-12.79007
6.199668	166.4144	-12.78694
6.201334	166.4476	-12.78314
6.203000	166.4816	-12.78022
6.204668	166.5150	-12.77734
6.206332	166.5492	-12.77486
6.208000	166.5824	-12.77092
6.209668	166.6160	-12.76600
6.211334	166.6496	-12.76109
6.213000	166.6837	-12.75544
6.214668	166.7164	-12.75028
6.216334	166.7510	-12.74348
6.218000	166.7833	-12.73761
6.219666	166.8179	-12.73101
6.221332	166.8512	-12.72336
6.223000	166.8852	-12.71641
6.224668	166.9192	-12.70916
6.226332	166.9527	-12.70246
6.228000	166.9873	-12.69357
6.229668	167.0200	-12.68356
6.231332	167.0544	-12.67250
6.233000	167.0880	-12.66104
6.234668	167.1212	-12.64775
6.236334	167.1553	-12.63588
6.238000	167.1895	-12.62597
6.239666	167.2241	-12.61750
6.241334	167.2574	-12.60404
6.243000	167.2926	-12.59319
6.244668	167.3259	-12.58256
6.246332	167.3604	-12.56914
6.248000	167.3937	-12.55573
6.249668	167.4274	-12.54395
6.251332	167.4616	-12.53021
6.253000	167.4961	-12.51666
6.254668	167.5294	-12.50147
6.256332	167.5649	-12.48867
6.258000	167.5988	-12.47488
6.259668	167.6329	-12.45674
6.261334	167.6674	-12.44144
6.263000	167.7002	-12.42536
6.264668	167.7352	-12.40975
6.266332	167.7687	-12.39327
6.268000	167.8033	-12.37616
6.269668	167.8366	-12.35877
6.271332	167.8722	-12.34153
6.273000	167.9056	-12.32343
6.274668	167.9404	-12.30498
6.276332	167.9742	-12.28576
6.278000	168.0085	-12.26575
6.279668	168.0436	-12.24444
6.281334	168.0772	-12.22539
6.283000	168.1115	-12.20620
6.284668	168.1459	-12.18445
6.286334	168.1804	-12.16294
6.288000	168.2144	-12.14060
6.289668	168.2487	-12.11923
6.291332	168.2838	-12.09705
6.293000	168.3177	-12.07585
6.294668	168.3526	-12.05199
6.296332	168.3865	-12.02828
6.298000	168.4217	-12.00467
6.299668	168.4566	-11.98114
6.301334	168.4902	-11.95702
6.303000	168.5250	-11.93304
6.304668	168.5590	-11.90839
6.306334	168.5936	-11.88531
6.308000	168.6286	-11.86016
6.309668	168.6634	-11.83407
6.311332	168.6975	-11.80942
6.313000	168.7328	-11.78400
6.314668	168.7662	-11.75836
6.316334	168.8006	-11.73129
6.318000	168.8358	-11.70679
6.319668	168.8706	-11.68062
6.321332	168.9057	-11.65500
6.323000	168.9401	-11.62751
6.324668	168.9747	-11.60224
6.326334	169.0098	-11.57629
6.328000	169.0438	-11.54835
6.329668	169.0778	-11.52038
6.331332	169.1135	-11.49373
6.333000	169.1481	-11.46662
6.334668	169.1832	-11.44001
6.336334	169.2174	-11.41226
6.338000	169.2516	-11.38546
6.339668	169.2871	-11.35662
6.341334	169.3207	-11.32983
6.343000	169.3560	-11.30265
6.344666	169.3903	-11.27658
6.346332	169.4243	-11.24813
6.348000	169.4605	-11.22110
6.349668	169.4943	-11.19182
6.351332	169.5284	-11.16466
6.353000	169.5640	-11.13762
6.354668	169.5979	-11.11087
6.356332	169.6331	-11.08245
6.358000	169.6672	-11.05477
6.359668	169.7030	-11.02834
6.361334	169.7376	-10.99903
6.363000	169.7721	-10.97281
6.364666	169.8065	-10.94474
6.366334	169.8414	-10.91682
6.368000	169.8754	-10.89043
6.369668	169.9108	-10.86261
6.371332	169.9450	-10.83682
6.373000	169.9796	-10.80877
6.374668	170.0149	-10.78216
6.376332	170.0484	-10.75507
6.378000	170.0834	-10.72804
6.379668	170.1188	-10.70290
6.381332	170.1534	-10.67608
6.383000	170.1880	-10.64773
6.384668	170.2226	-10.62081
6.386334	170.2566	-10.59508
6.388000	170.2920	-10.56800
6.389668	170.3262	-10.54210
6.391332	170.3614	-10.51674
6.393000	170.3945	-10.49031
6.394668	170.4301	-10.46465
6.396332	170.4649	-10.43945
6.398000	170.4992	-10.41391
6.399668	170.5349	-10.38660
6.401334	170.5683	-10.36183
6.403000	170.6030	-10.33729
6.404668	170.6368	-10.31161
6.406332	170.6722	-10.28605
6.408000	170.7072	-10.26180
6.409668	170.7409	-10.23651
6.411334	170.7768	-10.21237
6.413000	170.8102	-10.18814
6.414668	170.8450	-10.16296
6.416332	170.8788	-10.14077
6.418000	170.9141	-10.11727
6.419668	170.9478	-10.09170
6.421332	170.9833	-10.06781
6.423000	171.0161	-10.04414
6.424668	171.0525	-10.02072
6.426334	171.0862	-9.998031
6.428000	171.1206	-9.973586
6.429666	171.1544	-9.950624
6.431334	171.1899	-9.928218
6.433000	171.2248	-9.904141
6.434668	171.2587	-9.881249
6.436334	171.2929	-9.857088
6.438000	171.3270	-9.836347
6.439668	171.3618	-9.813876
6.441332	171.3961	-9.791764
6.443000	171.4311	-9.770295
6.444668	171.4654	-9.748746
6.446332	171.4992	-9.726672
6.448000	171.5337	-9.705344
6.449668	171.5686	-9.684601
6.451334	171.6023	-9.663995
6.453000	171.6377	-9.641688
6.454668	171.6712	-9.620538
6.456332	171.7061	-9.599032
6.458000	171.7403	-9.579424
6.459668	171.7739	-9.559325
6.461334	171.8090	-9.539015
6.463000	171.8425	-9.517244
6.464668	171.8773	-9.498495
6.466332	171.9122	-9.479648
6.468000	171.9470	-9.458181
6.469666	171.9813	-9.437882
6.471332	172.0148	-9.417380
6.473000	172.0502	-9.398532
6.474668	172.0839	-9.378785
6.476332	172.1170	-9.359814
6.478000	172.1516	-9.342988
6.479668	172.1873	-9.323136
6.481332	172.2208	-9.305145
6.483000	172.2541	-9.286734
6.484668	172.2883	-9.268308
6.486334	172.3232	-9.250156
6.488000	172.3582	-9.231296
6.489668	172.3915	-9.213982
6.491334	172.4264	-9.195387
6.493000	172.4605	-9.177811
6.494666	172.4942	-9.160571
6.496332	172.5276	-9.142838
6.498000	172.5629	-9.125931
6.499668	172.5956	-9.107944
6.501334	172.6309	-9.091034
6.503000	172.6654	-9.074751
6.504668	172.6994	-9.058756
6.506332	172.7328	-9.040649
6.508000	172.7676	-9.024612
6.509668	172.8014	-9.009543
6.511334	172.8362	-8.991666
6.513000	172.8692	-8.975534
6.514668	172.9059	-8.958091
6.516332	172.9382	-8.943028
6.518000	172.9714	-8.927238
6.519668	173.0063	-8.912662
6.521332	173.0399	-8.897658
6.523000	173.0734	-8.881378
6.524668	173.1088	-8.864259
6.526334	173.1425	-8.851041
6.528000	173.1773	-8.836288
6.529668	173.2096	-8.821243
6.531332	173.2451	-8.807011
6.533000	173.2788	-8.791290
6.534668	173.3133	-8.777782
6.536334	173.3481	-8.761921
6.538000	173.3815	-8.748032
6.539668	173.4152	-8.734710
6.541332	173.4494	-8.720262
6.543000	173.4836	-8.706625
6.544668	173.5176	-8.692345
6.546332	173.5530	-8.677882
6.548000	173.5854	-8.665991
6.549668	173.6196	-8.651856
6.551334	173.6544	-8.638368
6.553000	173.6880	-8.626337
6.554666	173.7213	-8.612976
6.556334	173.7554	-8.600165
6.558000	173.7892	-8.587986
6.559668	173.8242	-8.575474
6.561334	173.8574	-8.562086
6.563000	173.8925	-8.549892
6.564668	173.9263	-8.536828
6.566332	173.9596	-8.524566
6.568000	173.9940	-8.512191
6.569668	174.0282	-8.499618
6.571332	174.0612	-8.487989
6.573000	174.0958	-8.475394
6.574668	174.1290	-8.463398
6.576334	174.1630	-8.450965
6.578000	174.1974	-8.439541
6.579668	174.2304	-8.427369
6.581332	174.2647	-8.415870
6.583000	174.2989	-8.405204
6.584668	174.3332	-8.394611
6.586334	174.3668	-8.384672
6.588000	174.4013	-8.372632
6.589668	174.4345	-8.360849
6.591332	174.4686	-8.350742
6.593000	174.5014	-8.339691
6.594666	174.5361	-8.329956
6.596332	174.5697	-8.318222
6.598000	174.6040	-8.307844
6.599668	174.6382	-8.296680
6.601332	174.6710	-8.288224
6.603000	174.7058	-8.277701
6.604668	174.7392	-8.266920
6.606332	174.7731	-8.256314
6.608000	174.8069	-8.246860
6.609668	174.8397	-8.237076
6.611334	174.8748	-8.226334
6.613000	174.9089	-8.216976
6.614668	174.9424	-8.207053
6.616334	174.9755	-8.197907
6.618000	175.0103	-8.188974
6.619666	175.0441	-8.177896
6.621332	175.0781	-8.168610
6.623000	175.1119	-8.159298
6.624668	175.1451	-8.151158
6.626334	175.1780	-8.141542
6.628000	175.2128	-8.133489
6.629668	175.2469	-8.125061
6.631332	175.2803	-8.114563
6.633000	175.3145	-8.106798
6.634668	175.3482	-8.097922
6.636334	175.3819	-8.090272
6.638000	175.4156	-8.081570
6.639668	175.4488	-8.073303
6.641332	175.4839	-8.064338
6.643000	175.5175	-8.054526
6.644668	175.5511	-8.047784
6.646332	175.5843	-8.039930
6.648000	175.6185	-8.031990
6.649668	175.6522	-8.023822
6.651334	175.6870	-8.016425
6.653000	175.7200	-8.008345
6.654668	175.7528	-8.000587
6.656332	175.7874	-7.992006
6.658000	175.8208	-7.985136
6.659668	175.8551	-7.977388
6.661334	175.8892	-7.969931
6.663000	175.9218	-7.962388
6.664668	175.9565	-7.954347
6.666332	175.9902	-7.947378
6.668000	176.0226	-7.939930
6.669668	176.0564	-7.933943
6.671332	176.0910	-7.926785
6.673000	176.1241	-7.919562
6.674668	176.1586	-7.911566
6.676334	176.1920	-7.906089
6.678000	176.2249	-7.899774
6.679666	176.2598	-7.892245
6.681334	176.2922	-7.884400
6.683000	176.3268	-7.876822
6.684668	176.3601	-7.870776
6.686334	176.3940	-7.863901
6.688000	176.4274	-7.858668
6.689668	176.4607	-7.852722
6.691332	176.4946	-7.846780
6.693000	176.5286	-7.839338
6.694668	176.5632	-7.833450
6.696332	176.5968	-7.827259
6.698000	176.6295	-7.821329
6.699668	176.6635	-7.816025
6.701334	176.6972	-7.810569
6.703000	176.7297	-7.804343
6.704668	176.7644	-7.797692
6.706332	176.7982	-7.792089
6.708000	176.8311	-7.786012
6.709668	176.8660	-7.778182
6.711334	176.8993	-7.772844
6.713000	176.9322	-7.769249
6.714668	176.9666	-7.762324
6.716332	176.9995	-7.756220
6.718000	177.0341	-7.752318
6.719666	177.0677	-7.745506
6.721332	177.1013	-7.739949
6.723000	177.1351	-7.734934
6.724668	177.1663	-7.730141
6.726332	177.2020	-7.724405
6.728000	177.2357	-7.718451
6.729668	177.2676	-7.715460
6.731332	177.3013	-7.709950
6.733000	177.3361	-7.703614
6.734668	177.3698	-7.698200
6.736334	177.4033	-7.693845
6.738000	177.4375	-7.686960
6.739668	177.4705	-7.681985
6.741334	177.5047	-7.679184
6.743000	177.5376	-7.674131
6.744666	177.5716	-7.668769
6.746332	177.6051	-7.664288
6.748000	177.6392	-7.660205
6.749668	177.6713	-7.655981
6.751334	177.7059	-7.650007
6.753000	177.7396	-7.645478
6.754668	177.7715	-7.641326
6.756332	177.8072	-7.637158
6.758000	177.8394	-7.632982
6.759668	177.8734	-7.627864
6.761334	177.9081	-7.624128
6.763000	177.9408	-7.620918
6.764668	177.9753	-7.615162
6.766332	178.0075	-7.610421
6.768000	178.0414	-7.608376
6.769668	178.0761	-7.603704
6.771332	178.1089	-7.599262
6.773000	178.1426	-7.595369
6.774668	178.1760	-7.590465
6.776334	178.2091	-7.588042
6.778000	178.2428	-7.582107
6.779668	178.2761	-7.578676
6.781332	178.3098	-7.574191
6.783000	178.3444	-7.570797
6.784668	178.3766	-7.566349
6.786334	178.4118	-7.562863
6.788000	178.4444	-7.557976
6.789668	178.4778	-7.555678
6.791332	178.5107	-7.550657
6.793000	178.5451	-7.547921
6.794668	178.5791	-7.545587
6.796332	178.6137	-7.541157
6.798000	178.6456	-7.538552
6.799668	178.6798	-7.535012
6.801334	178.7136	-7.532492
6.803000	178.7464	-7.528591
6.804666	178.7808	-7.525657
6.806334	178.8138	-7.522920
6.808000	178.8484	-7.519600
6.809668	178.8816	-7.515259
6.811334	178.9149	-7.511816
6.813000	178.9485	-7.508765
6.814668	178.9817	-7.505444
6.816332	179.0148	-7.502200
6.818000	179.0483	-7.498282
6.819668	179.0825	-7.495600
6.821332	179.1159	-7.492609
6.823000	179.1497	-7.490072
6.824668	179.1839	-7.486306
6.826334	179.2166	-7.483000
6.828000	179.2501	-7.480454
6.829668	179.2832	-7.477650
6.831332	179.3168	-7.474636
6.833000	179.3509	-7.472063
6.834668	179.3826	-7.468528
6.836334	179.4174	-7.465322
6.838000	179.4512	-7.462161
6.839668	179.4855	-7.459894
6.841332	179.5173	-7.456952
6.843000	179.5517	-7.454625
6.844666	179.5849	-7.451801
6.846332	179.6184	-7.449860
6.848000	179.6516	-7.447310
6.849668	179.6854	-7.444790
6.851332	179.7196	-7.442447
6.853000	179.7522	-7.439486
6.854668	179.7856	-7.436361
6.856332	179.8195	-7.434124
6.858000	179.8534	-7.431866
6.859668	179.8865	-7.429382
6.861334	179.9200	-7.427160
6.863000	179.9528	-7.424650
6.864668	179.9860	-7.422138
6.866334	180.0203	-7.419442
6.868000	180.0541	-7.417366
6.869666	180.0869	-7.415037
6.871332	180.1207	-7.412360
6.873000	180.1545	-7.410112
6.874668	180.1880	-7.408084
6.876334	180.2211	-7.405620
6.878000	180.2548	-7.403509
6.879668	180.2878	-7.401280
6.881332	180.3213	-7.399186
6.883000	180.3553	-7.397116
6.884668	180.3884	-7.394815
6.886334	180.4226	-7.392639
6.888000	180.4563	-7.390744
6.889668	180.4892	-7.388931
6.891332	180.5219	-7.387132
6.893000	180.5566	-7.385412
6.894668	180.5897	-7.383738
6.896332	180.6234	-7.381740
6.898000	180.6562	-7.379270
6.899668	180.6898	-7.377555
6.901334	180.7235	-7.375792
6.903000	180.7568	-7.373901
6.904668	180.7900	-7.372066
6.906332	180.8240	-7.370790
6.908000	180.8573	-7.368530
6.909668	180.8917	-7.366168
6.911334	180.9237	-7.364801
6.913000	180.9582	-7.363455
6.914668	180.9900	-7.361921
6.916332	181.0244	-7.359768
6.918000	181.0582	-7.357869
6.919668	181.0908	-7.356397
6.921332	181.1240	-7.354619
6.923000	181.1580	-7.353040
6.924668	181.1922	-7.350972
6.926334	181.2255	-7.349394
6.928000	181.2592	-7.348020
6.929666	181.2920	-7.346519
6.931334	181.3248	-7.344986
6.933000	181.3592	-7.343438
6.934668	181.3922	-7.341816
6.936334	181.4266	-7.340405
6.938000	181.4607	-7.338915
6.939668	181.4924	-7.336993
6.941332	181.5278	-7.335528
6.943000	181.5598	-7.334003
6.944668	181.5932	-7.332770
6.946332	181.6274	-7.331624
6.948000	181.6602	-7.330024
6.949668	181.6941	-7.328570
6.951334	181.7272	-7.327231
6.953000	181.7609	-7.326030
6.954668	181.7944	-7.324706
6.956332	181.8278	-7.323126
6.958000	181.8613	-7.321682
6.959668	181.8943	-7.320429
6.961334	181.9276	-7.319250
6.963000	181.9627	-7.317882
6.964668	181.9956	-7.316650
6.966332	182.0276	-7.315601
6.968000	182.0615	-7.314586
6.969666	182.0948	-7.313447
6.971332	182.1289	-7.312202
6.973000	182.1620	-7.311087
6.974668	182.1952	-7.309988
6.976332	182.2285	-7.308544
6.978000	182.2623	-7.307270
6.979668	182.2952	-7.306125
6.981332	182.3289	-7.305090
6.983000	182.3623	-7.304048
6.984668	182.3954	-7.302944
6.986334	182.4285	-7.301930
6.988000	182.4628	-7.300996
6.989668	182.4952	-7.299757
6.991334	182.5300	-7.298684
6.993000	182.5635	-7.297790
6.994666	182.5964	-7.296882
6.996332	182.6297	-7.295821
6.998000	182.6634	-7.294553
6.999668	182.6976	-7.293335
7.001334	182.7306	-7.292349
7.003000	182.7633	-7.291436
7.004668	182.7963	-7.290610
7.006332	182.8304	-7.289728
7.008000	182.8638	-7.288649
7.009668	182.8975	-7.287611
7.011334	182.9315	-7.286587
7.013000	182.9652	-7.285603
7.014668	182.9984	-7.284690
7.016332	183.0313	-7.283680
7.018000	183.0648	-7.282864
7.019668	183.0984	-7.282075
7.021332	183.1319	-7.281184
7.023000	183.1659	-7.280481
7.024668	183.1994	-7.279837
7.026334	183.2322	-7.279106
7.028000	183.2657	-7.278338
7.029668	183.2983	-7.277624
7.031332	183.3315	-7.276913
7.033000	183.3654	-7.276135
7.034668	183.3987	-7.275338
7.036334	183.4324	-7.274631
7.038000	183.4656	-7.273901
7.039668	183.5000	-7.273208
7.041332	183.5326	-7.272516
7.043000	183.5653	-7.271790
7.044668	183.5992	-7.271119
7.046332	183.6334	-7.270348
7.048000	183.6656	-7.269571
7.049668	183.6992	-7.268901
7.051334	183.7334	-7.268299
7.053000	183.7668	-7.267698
7.054666	183.8002	-7.267095
7.056334	183.8335	-7.266460
7.058000	183.8666	-7.265860
7.059668	183.8998	-7.265292
7.061334	183.9332	-7.264719
7.063000	183.9672	-7.264134
7.064668	184.0004	-7.263582
7.066332	184.0336	-7.263025
7.068000	184.0662	-7.262421
7.069668	184.0997	-7.261847
7.071332	184.1334	-7.261207
7.073000	184.1673	-7.260471
7.074668	184.2001	-7.259890
7.076334	184.2346	-7.259356
7.078000	184.2674	-7.258813
7.079668	184.3006	-7.258260
7.081332	184.3348	-7.257758
7.083000	184.3689	-7.257278
7.084668	184.4016	-7.256710
7.086334	184.4347	-7.256112
7.088000	184.4680	-7.255615
7.089668	184.5020	-7.255145
7.091332	184.5350	-7.254772
7.093000	184.5668	-7.254369
7.094666	184.6014	-7.253982
7.096332	184.6345	-7.253547
7.098000	184.6690	-7.253101
7.099668	184.7010	-7.252656
7.101332	184.7357	-7.252210
7.103000	184.7685	-7.251800
7.104668	184.8019	-7.251313
7.106332	184.8369	-7.250878
7.108000	184.8679	-7.250471
7.109668	184.9027	-7.249926
7.111334	184.9358	-7.249350
7.113000	184.9691	-7.248852
7.114668	185.0031	-7.248400
7.116334	185.0358	-7.247945
7.118000	185.0696	-7.247522
7.119666	185.1032	-7.247076
7.121332	185.1362	-7.246641
7.123000	185.1695	-7.246238
7.124668	185.2024	-7.245861
7.126334	185.2361	-7.245522
7.128000	185.2700	-7.245172
7.129668	185.3030	-7.244821
7.131332	185.3366	-7.244468
7.133000	185.3695	-7.244152
7.134668	185.4036	-7.243837
7.136334	185.4362	-7.243494
7.138000	185.4700	-7.243160
7.139668	185.5038	-7.242818
7.141332	185.5381	-7.242466
7.143000	185.5714	-7.242120
7.144668	185.6030	-7.241806
7.146332	185.6367	-7.241505
7.148000	185.6709	-7.241238
7.149668	185.7044	-7.241005
7.151334	185.7379	-7.240792
7.153000	185.7709	-7.240556
7.154668	185.8047	-7.240330
7.156332	185.8375	-7.240106
7.158000	185.8709	-7.239855
7.159668	185.9052	-7.239616
7.161334	185.9382	-7.239375
7.163000	185.9711	-7.239130
7.164668	186.0048	-7.238909
7.166332	186.0378	-7.238710
7.168000	186.0717	-7.238510
7.169668	186.1054	-7.238285
7.171332	186.1386	-7.238064
7.173000	186.1719	-7.237856
7.174668	186.2054	-7.237662
7.176334	186.2392	-7.237485
7.178000	186.2721	-7.237312
7.179666	186.3051	-7.237138
7.181334	186.3394	-7.236962
7.183000	186.3722	-7.236787
7.184668	186.4057	-7.236609
7.186334	186.4391	-7.236426
7.188000	186.4724	-7.236243
7.189668	186.5055	-7.236060
7.191332	186.5395	-7.235875
7.193000	186.5725	-7.235688
7.194668	186.6066	-7.235505
7.196332	186.6389	-7.235319
7.198000	186.6725	-7.235130
7.199668	186.7059	-7.234937
7.201334	186.7392	-7.234741
7.203000	186.7730	-7.234547
7.204668	186.8060	-7.234356
7.206332	186.8392	-7.234162
7.208000	186.8733	-7.233970
7.209668	186.9059	-7.233776
7.211334	186.9403	-7.233584
7.213000	186.9733	-7.233392
7.214668	187.0071	-7.233200
7.216332	187.0408	-7.233007
7.218000	187.0735	-7.232810
7.219666	187.1071	-7.232612
7.221332	187.1410	-7.232416
7.223000	187.1746	-7.232222
7.224668	187.2073	-7.232030
7.226332	187.2411	-7.231836
7.228000	187.2742	-7.231640
7.229668	187.3068	-7.231446
7.231332	187.3412	-7.231253
7.233000	187.3736	-7.231060
7.234668	187.4081	-7.230869
7.236334	187.4406	-7.230676
7.238000	187.4738	-7.230484
7.239668	187.5078	-7.230288
7.241334	187.5409	-7.230093
7.243000	187.5746	-7.229900
7.244666	187.6072	-7.229706
7.246332	187.6414	-7.229514
7.248000	187.6746	-7.229320
7.249668	187.7086	-7.229126
7.251334	187.7409	-7.228936
7.253000	187.7744	-7.228746
7.254668	187.8085	-7.228557
7.256332	187.8414	-7.228368
7.258000	187.8747	-7.228179
7.259668	187.9088	-7.227990
7.261334	187.9421	-7.227803
7.263000	187.9746	-7.227616
7.264668	188.0089	-7.227429
7.266332	188.0411	-7.227242
7.268000	188.0759	-7.227056
7.269668	188.1086	-7.226868
7.271332	188.1419	-7.226681
7.273000	188.1747	-7.226494
7.274668	188.2092	-7.226310
7.276334	188.2422	-7.226124
7.278000	188.2757	-7.225940
7.279668	188.3086	-7.225757
7.281332	188.3419	-7.225574
7.283000	188.3758	-7.225390
7.284668	188.4098	-7.225207
7.286334	188.4424	-7.225024
7.288000	188.4764	-7.224843
7.289668	188.5088	-7.224663
7.291332	188.5432	-7.224485
7.293000	188.5752	-7.224306
7.294668	188.6097	-7.224128
7.296332	188.6430	-7.223950
7.298000	188.6753	-7.223770
7.299668	188.7108	-7.223593
7.301334	188.7425	-7.223413
7.303000	188.7762	-7.223235
7.304666	188.8101	-7.223056
7.306334	188.8436	-7.222876
7.308000	188.8771	-7.222699
7.309668	188.9104	-7.222522
7.311334	188.9429	-7.222346
7.313000	188.9772	-7.222172
7.314668	189.0092	-7.222000
7.316332	189.0435	-7.221829
7.318000	189.0771	-7.221660
7.319668	189.1105	-7.221491
7.321332	189.1437	-7.221324
7.323000	189.1772	-7.221156
7.324668	189.2112	-7.220989
7.326334	189.2439	-7.220825
7.328000	189.2764	-7.220663
7.329668	189.3106	-7.220500
7.331332	189.3435	-7.220338
7.333000	189.3773	-7.220178
7.334668	189.4111	-7.220019
7.336334	189.4448	-7.219861
7.338000	189.4778	-7.219705
7.339668	189.5109	-7.219549
7.341332	189.5440	-7.219394
7.343000	189.5776	-7.219239
7.344666	189.6104	-7.219087
7.346332	189.6430	-7.218936
7.348000	189.6765	-7.218786
7.349668	189.7108	-7.218638
7.351332	189.7448	-7.218491
7.353000	189.7780	-7.218347
7.354668	189.8110	-7.218203
7.356332	189.8437	-7.218061
7.358000	189.8778	-7.217918
7.359668	189.9120	-7.217776
7.361334	189.9451	-7.217636
7.363000	189.9781	-7.217498
7.364668	190.0117	-7.217358
7.366334	190.0436	-7.217220
7.368000	190.0780	-7.217079
7.369666	190.1114	-7.216940
7.371332	190.1441	-7.216801
7.373000	190.1784	-7.216665
7.374668	190.2113	-7.216530
7.376334	190.2445	-7.216397
7.378000	190.2794	-7.216265
7.379668	190.3110	-7.216135
7.381332	190.3439	-7.216006
7.383000	190.3785	-7.215876
7.384668	190.4112	-7.215749
7.386334	190.4451	-7.215621
7.388000	190.4796	-7.215495
7.389668	190.5130	-7.215371
7.391332	190.5452	-7.215247
7.393000	190.5794	-7.215125
7.394668	190.6130	-7.215003
7.396332	190.6458	-7.214882
7.398000	190.6784	-7.214765
7.399668	190.7114	-7.214646
7.401334	190.7462	-7.214530
7.403000	190.7791	-7.214413
7.404668	190.8129	-7.214300
7.406332	190.8469	-7.214188
7.408000	190.8795	-7.214078
7.409668	190.9128	-7.213970
7.411334	190.9470	-7.213862
7.413000	190.9798	-7.213757
7.414668	191.0131	-7.213652
7.416332	191.0459	-7.213546
7.418000	191.0806	-7.213443
7.419668	191.1130	-7.213342
7.421332	191.1466	-7.213241
7.423000	191.1800	-7.213144
7.424668	191.2137	-7.213048
7.426334	191.2464	-7.212953
7.428000	191.2799	-7.212860
7.429666	191.3127	-7.212768
7.431334	191.3472	-7.212674
7.433000	191.3801	-7.212582
7.434668	191.4140	-7.212493
7.436334	191.4470	-7.212403
7.438000	191.4806	-7.212316
7.439668	191.5141	-7.212228
7.441332	191.5466	-7.212140
7.443000	191.5802	-7.212053
7.444668	191.6124	-7.211968
7.446332	191.6479	-7.211882
7.448000	191.6806	-7.211799
7.449668	191.7145	-7.211716
7.451334	191.7477	-7.211636
7.453000	191.7802	-7.211556
7.454668	191.8139	-7.211478
7.456332	191.8475	-7.211399
7.458000	191.8803	-7.211322
7.459668	191.9146	-7.211245
7.461334	191.9486	-7.211170
7.463000	191.9808	-7.211091
7.464668	192.0147	-7.211014
7.466332	192.0488	-7.210937
7.468000	192.0815	-7.210862
7.469666	192.1145	-7.210788
7.471332	192.1475	-7.210716
7.473000	192.1806	-7.210644
7.474668	192.2148	-7.210572
7.476332	192.2485	-7.210503
7.478000	192.2824	-7.210434
7.479668	192.3146	-7.210366
7.481332	192.3485	-7.210298
7.483000	192.3823	-7.210232
7.484668	192.4147	-7.210169
7.486334	192.4486	-7.210105
7.488000	192.4823	-7.210044
7.489668	192.5149	-7.209982
7.491334	192.5487	-7.209922
7.493000	192.5831	-7.209863
7.494666	192.6146	-7.209807
7.496332	192.6480	-7.209750
7.498000	192.6821	-7.209696
7.499668	192.7159	-7.209642
7.501334	192.7484	-7.209589
7.503000	192.7828	-7.209538
7.504668	192.8163	-7.209488
7.506332	192.8489	-7.209438
7.508000	192.8821	-7.209390
7.509668	192.9154	-7.209343
7.511334	192.9489	-7.209297
7.513000	192.9822	-7.209252
7.514668	193.0159	-7.209207
7.516332	193.0496	-7.209162
7.518000	193.0825	-7.209121
7.519668	193.1160	-7.209080
7.521332	193.1503	-7.209039
7.523000	193.1825	-7.209000
7.524668	193.2164	-7.208961
7.526334	193.2506	-7.208924
7.528000	193.2835	-7.208888
7.529668	193.3166	-7.208853
7.531332	193.3497	-7.208819
7.533000	193.3824	-7.208784
7.534668	193.4167	-7.208752
7.536334	193.4498	-7.208722
7.538000	193.4834	-7.208694
7.539668	193.5167	-7.208666
7.541332	193.5501	-7.208638
7.543000	193.5836	-7.208612
7.544668	193.6169	-7.208588
7.546332	193.6498	-7.208564
7.548000	193.6830	-7.208542
7.549668	193.7169	-7.208522
7.551334	193.7506	-7.208503
7.553000	193.7829	-7.208484
7.554666	193.8162	-7.208468
7.556334	193.8495	-7.208451
7.558000	193.8841	-7.208436
7.559668	193.9164	-7.208422
7.561334	193.9511	-7.208407
7.563000	193.9848	-7.208394
7.564668	194.0180	-7.208381
7.566332	194.0514	-7.208368
7.568000	194.0836	-7.208357
7.569668	194.1175	-7.208345
7.571332	194.1512	-7.208336
7.573000	194.1845	-7.208326
7.574668	194.2172	-7.208316
7.576334	194.2502	-7.208308
7.578000	194.2849	-7.208300
7.579668	194.3178	-7.208294
